# quantum yield phi for CH3CHO -> CH2CHOH 
# Andrews et al(2012) digitized by D. Taraborrelli 
# lambda phi
# [nm]   [1]
295.    0.139695
295.714 0.144275
296.19  0.151145
296.905 0.155725
297.381 0.162595
297.857 0.169466
298.571 0.174046
299.048 0.180916
299.762 0.187786
300.714 0.192366
301.19  0.199237
301.905 0.203817
302.381 0.210687
303.095 0.217557
303.81  0.224427
304.524 0.229008
305.238 0.233588
306.19  0.238168
307.381 0.242748
308.095 0.247328
308.81  0.249618
309.524 0.249618
310.714 0.251908
311.905 0.254198
313.095 0.254198
314.048 0.254198
315.    0.251908
315.714 0.251908
316.429 0.247328
317.619 0.242748
318.333 0.240458
319.048 0.235878
319.762 0.231298
320.476 0.226718
321.429 0.222137
322.143 0.215267
323.095 0.208397
324.048 0.201527
325.    0.196947
325.952 0.190076
326.667 0.183206
327.619 0.178626
328.571 0.171756
329.286 0.164885
330.238 0.160305
331.19  0.153435
332.143 0.146565
333.095 0.139695
334.048 0.132824
335.    0.125954
336.19  0.119084
337.143 0.114504
338.095 0.107634
339.048 0.103053
340.    0.0984733
340.952 0.0938931
341.905 0.0870229
342.619 0.0801527
343.81  0.0755725
344.762 0.0709924
345.476 0.0664122
346.667 0.0641221
347.381 0.059542
348.571 0.0572519
349.524 0.0526718

