# quantum yield phi for HCHO -> CHO + H
# JPL (2011)
# lambda phi
# [nm]   [1]
250. 0.310
251. 0.308
252. 0.307
253. 0.306
254. 0.305
255. 0.304
256. 0.304
257. 0.303
258. 0.303
259. 0.304
260. 0.307
261. 0.312
262. 0.318
263. 0.325
264. 0.333
265. 0.343
266. 0.354
267. 0.365
268. 0.377
269. 0.390
270. 0.404
271. 0.418
272. 0.433
273. 0.448
274. 0.464
275. 0.479
276. 0.495
277. 0.512
278. 0.528
279. 0.544
280. 0.560
281. 0.576
282. 0.591
283. 0.606
284. 0.620
285. 0.633
286. 0.645
287. 0.657
288. 0.669
289. 0.680
290. 0.690
291. 0.700
292. 0.710
293. 0.718
294. 0.726
295. 0.734
296. 0.740
297. 0.746
298. 0.751
299. 0.755
300. 0.758
301. 0.761
302. 0.762
303. 0.762
304. 0.762
305. 0.760
306. 0.758
307. 0.754
308. 0.749
309. 0.744
310. 0.737
311. 0.729
312. 0.720
313. 0.709
314. 0.698
315. 0.685
316. 0.671
317. 0.656
318. 0.639
319. 0.622
320. 0.603
321. 0.583
322. 0.561
323. 0.539
324. 0.515
325. 0.489
326. 0.463
327. 0.435
328. 0.406
329. 0.375
330. 0.343
331. 0.310
332. 0.276
333. 0.240
334. 0.203
335. 0.165
336. 0.126
337. 0.085
338. 0.043
339. 0.0
