###
###
###
### flag(1=annually,2=monthly,3=daily,4=hourly), 1st year, last year, columns
2 1954  2007 19
### PARAMETER AXIS: levels [Pa]
300., 400., 500., 600., 800., 1000., 1200., 1500., 2000., 2500., 3000., 3500., 4000., 4500., 5000., 6000., 7000., 8000., 9000.
### DATA
1954 01  -2.91  -8.14 -12.14 -15.24 -19.45 -23.29 -23.61 -24.00 -24.00 -19.20 -11.00   0.44  10.00  10.78   8.00   6.50   5.00   6.94   5.09
1954 02   0.81  -3.59  -8.35 -12.69 -18.65 -22.58 -23.11 -23.50 -25.00 -22.06 -16.00  -7.51   0.20   2.78   3.00   1.55   0.10   2.93   4.12
1954 03   3.83   0.96  -3.01  -7.32 -15.55 -21.58 -22.22 -23.00 -26.00 -24.65 -20.00 -12.81  -5.00   1.18   6.00   5.25   4.50   0.24   1.59
1954 04   5.30   4.67   2.19  -1.18  -9.00 -17.23 -21.22 -22.00 -27.50 -26.62 -22.00 -17.22 -12.00  -7.27  -3.00   1.25   5.50   2.86   0.48
1954 05   6.20   6.47   5.96   4.49  -1.49  -8.65 -13.97 -21.00 -24.00 -24.65 -23.50 -21.22 -18.00 -14.20 -10.00  -2.00   6.00   3.47   1.97
1954 06   6.77   7.58   7.87   7.72   5.44   0.19  -5.75 -12.00 -22.00 -24.53 -23.00 -22.72 -21.50 -18.76 -15.00  -4.75   5.50   3.74   2.33
1954 07   6.79   8.28   9.08   9.50   9.43   8.10   3.81  -4.00 -15.00 -21.55 -24.50 -24.50 -23.00 -22.13 -20.50  -8.25   4.00   3.39   2.44
1954 08   6.81   8.31   9.69  10.74  11.60  11.84   9.91   6.00  -4.00 -15.47 -25.00 -26.38 -24.50 -22.54 -19.50  -8.50   2.50   2.45   2.13
1954 09   7.02   8.33   9.70  11.03  13.13  14.05  12.56  11.00   4.00  -7.10 -18.50 -24.47 -27.00 -25.71 -22.00 -12.00  -2.00   1.38   1.51
1954 10   7.16   8.59   9.80  11.00  13.49  15.71  14.95  13.00  11.00   1.85 -10.00 -18.34 -24.00 -25.15 -23.50 -14.50  -5.50  -1.40   0.59
1954 11   6.91   8.76  10.11  11.26  13.45  15.79  15.89  15.50  12.00   9.90   6.00  -7.31 -20.00 -22.69 -21.00 -14.50  -8.00  -3.55  -1.18
1954 12   6.24   8.46  10.20  11.61  13.77  15.71  15.61  16.00  15.00  12.20   7.50   0.00  -8.00 -14.59 -19.50 -14.25  -9.00  -5.05  -2.53
1955 01   5.39   7.64   9.68  11.50  14.20  16.21  15.89  15.50  15.50  13.72  10.50   6.16   1.00  -5.05 -10.50  -7.25  -4.00  -5.44  -3.42
1955 02   3.84   6.60   8.71  10.62  14.07  16.71  16.39  16.00  15.00  13.10  10.80   9.23   7.00   2.33  -2.50  -0.25   2.00  -2.26  -3.23
1955 03   1.84   4.72   7.30   9.46  13.00  16.37  16.89  16.50  15.50  13.05  10.50  10.81  10.50   5.89   0.50   3.00   5.50   1.40  -1.06
1955 04   0.96   2.26   4.77   7.53  11.58  14.87  15.83  17.00  16.00  15.25  14.50  13.28  12.00  10.98  10.00   7.50   5.00   3.43   1.18
1955 05  -2.01   1.20   2.46   4.02   9.22  13.16  14.33  15.50  16.50  18.12  19.00  16.31  13.00  11.48  10.50   7.75   5.00   3.13   2.23
1955 06  -7.93  -2.41   0.78   2.45   4.95  10.11  12.44  14.00  18.00  19.27  18.50  15.97  13.50  13.72  14.50   9.50   4.50   3.11   2.07
1955 07 -10.89  -9.68  -4.89  -0.28   3.01   4.57   8.49  12.00  16.00  18.40  19.00  17.06  14.10  11.52   9.00   5.50   2.00   2.72   2.02
1955 08 -11.82 -13.30 -12.35  -9.45  -0.32   3.22   2.03   7.50  15.50  19.89  21.10  19.02  15.60  12.96  10.50   7.15   3.80   1.33   1.62
1955 09 -11.13 -14.47 -16.04 -16.00 -11.46  -1.38   5.58   0.50  15.00  19.47  18.00  16.16  13.50  11.61  10.00   8.50   7.00   2.51   1.01
1955 10 -12.58 -13.60 -16.49 -19.13 -19.52 -16.77  -8.62   7.00  13.00  15.91  16.30  14.40  11.80  10.36   9.50  11.00  12.50   4.61   1.90
1955 11 -12.64 -15.38 -16.44 -17.95 -23.38 -24.51 -20.03 -13.00  -2.00   4.04   6.60   7.23   7.20   8.66  10.50  13.00  15.50   7.96   3.45
1955 12 -10.98 -15.47 -18.11 -19.69 -21.97 -28.13 -26.69 -22.00 -13.00  -2.72   5.90   7.11   6.30   7.52   9.00  10.00  11.00   9.53   5.49
1956 01  -7.87 -13.45 -17.68 -20.83 -24.06 -25.00 -26.20 -28.00 -15.20  -7.18  -2.20   2.42   5.70   7.42   8.00   5.90   3.80   6.60   5.98
1956 02  -4.43  -9.66 -14.78 -19.33 -25.47 -29.00 -28.72 -28.30 -17.00 -10.38  -6.20  -0.77   3.70   5.88   6.80   6.65   6.50   2.49   3.85
1956 03  -0.66  -5.45 -10.21 -15.03 -23.66 -30.00 -30.08 -30.20 -19.50 -14.30 -11.20  -4.32   2.40   6.69   9.50   9.25   9.00   4.18   1.85
1956 04   3.78  -0.85  -5.29  -9.58 -18.42 -27.00 -27.40 -28.00 -25.10 -24.16 -22.40 -14.54  -5.30   2.18   8.50  11.85  15.20   5.89   2.95
1956 05   5.77   4.60   0.55  -3.98 -11.76 -20.00 -22.40 -26.00 -23.00 -22.34 -22.20 -20.06 -16.10  -8.94  -0.80   7.20  15.20   9.53   4.35
1956 06   5.46   7.05   6.19   3.54  -4.92 -12.00 -18.40 -28.00 -23.00 -23.27 -25.20 -23.35 -19.70 -14.01  -7.50   1.00   9.50   9.29   6.31
1956 07   4.58   6.68   8.18   8.55   4.26  -4.00 -11.80 -23.50 -23.50 -24.30 -24.90 -23.67 -21.40 -18.27 -14.50  -6.00   2.50   5.67   5.74
1956 08   2.91   5.62   7.61   9.17  10.42   7.50  -0.30 -12.00 -24.50 -28.06 -26.60 -26.01 -24.20 -20.77 -16.50  -8.65  -0.80   1.43   3.24
1956 09   2.09   3.57   6.03   8.27  11.21  13.50   8.70   1.50 -22.00 -29.64 -28.20 -27.75 -25.30 -20.81 -15.50  -9.85  -4.20  -0.64   0.71
1956 10   4.46   2.54   3.70   5.84  10.12  13.00   9.80   5.00 -10.00 -21.03 -27.60 -28.12 -25.50 -22.20 -18.00  -9.75  -1.50  -2.52  -0.67
1956 11   8.27   5.41   3.51   3.32   7.16  11.50  12.30  13.50   9.00  -6.84 -24.60 -28.96 -28.10 -25.01 -20.00 -10.25  -0.50  -0.90  -1.47
1956 12   7.60  10.11   7.81   5.00   4.08   7.50   9.10  11.50  10.00   2.35  -8.40 -19.31 -27.10 -25.80 -20.50 -13.25  -6.00  -0.54  -0.52
1957 01   2.60   9.33  11.96  11.66   6.09   4.00   3.92   3.80   8.70   6.06  -2.10 -15.51 -26.90 -26.62 -21.50 -14.00  -6.50  -3.78  -0.76
1957 02  -2.20   3.23   9.43  13.84  14.19   8.00   7.20   6.00   5.00   2.94  -1.30 -11.43 -20.90 -23.16 -22.00 -14.75  -7.50  -4.11  -2.54
1957 03  -2.56  -2.68   1.92   7.93  16.92  19.00  14.80   8.50   7.30   8.86   9.20   0.54  -9.70 -16.27 -20.50 -14.00  -7.50  -4.70  -2.80
1957 04  -2.36  -3.13  -3.32  -1.31   9.76  20.00  19.00  17.50  11.50  10.92  12.00   9.26   4.10  -5.22 -14.80 -10.40  -6.00  -4.64  -3.11
1957 05  -3.32  -2.87  -3.50  -4.13  -1.52   9.00  10.60  13.00  11.00  11.91  13.70  14.08  11.70   2.71  -7.70  -6.35  -5.00  -3.72  -2.96
1957 06  -4.88  -4.05  -3.65  -3.67  -5.04  -4.80  -1.96   2.30   6.50  10.75  14.10  15.02  14.20  11.48   7.80   2.40  -3.00  -3.05  -2.39
1957 07  -8.32  -5.94  -5.06  -4.71  -4.50  -6.20  -3.64   0.20   7.30  12.09  14.70  15.01  14.00  12.74  10.90   4.45  -2.00  -1.84  -1.87
1957 08 -11.14 -10.15  -8.03  -6.36  -5.75  -5.00  -3.08  -0.20  12.00  16.34  16.00  15.34  14.00  13.37  12.50   6.00  -0.50  -1.19  -1.14
1957 09 -12.47 -13.62 -12.89 -11.18  -7.76  -7.20  -4.52  -0.50  14.00  18.90  18.00  16.41  14.00  12.66  11.40   6.45   1.50  -0.23  -0.68
1957 10 -13.49 -15.23 -16.28 -16.57 -13.62  -9.60  -6.56  -2.00  10.00  14.40  14.40  14.59  13.90  12.80  11.30   7.65   4.00   1.04  -0.01
1957 11 -11.94 -16.51 -18.42 -19.18 -20.22 -17.70 -13.42  -7.00   6.00  11.10  11.70  12.78  13.00  12.68  11.80   7.90   4.00   2.51   0.87
1957 12 -13.23 -14.59 -18.56 -22.06 -23.45 -25.30 -22.78 -19.00  -4.70   5.15  11.00  12.76  12.50  12.54  12.00   7.25   2.50   2.45   1.66
1958 01 -13.73 -16.18 -17.51 -19.70 -26.96 -28.00 -25.20 -21.00 -10.70  -1.37   6.00   9.66  11.00  10.63   9.10   5.80   2.50   1.57   1.51
1958 02 -13.57 -16.80 -19.13 -20.76 -24.13 -32.50 -28.30 -22.00  -9.60  -0.83   4.90   8.29   9.60   9.05   7.40   4.70   2.00   1.55   1.04
1958 03 -13.61 -16.60 -19.57 -22.14 -25.37 -27.00 -24.28 -20.20 -13.80  -4.91   3.70   7.48   9.00   9.27   8.50   5.75   3.00   1.29   0.99
1958 04 -12.95 -16.65 -19.42 -22.10 -27.07 -30.40 -27.44 -23.00 -21.70 -15.15  -6.30   0.81   6.50   9.41  10.60   8.80   7.00   2.04   0.93
1958 05  -9.22 -15.86 -19.48 -22.09 -27.04 -32.00 -29.08 -24.70 -22.10 -21.59 -19.70  -9.34   2.00   8.42  12.30  10.40   8.50   4.45   1.64
1958 06  -4.54 -11.32 -17.52 -22.16 -27.01 -31.50 -29.14 -25.60 -23.20 -22.17 -20.40 -14.08  -6.20   1.84   9.10   9.05   9.00   5.35   3.05
1958 07  -2.18  -5.56 -11.53 -17.98 -27.10 -31.60 -28.36 -23.50 -22.70 -23.48 -23.30 -17.54 -10.00  -2.88   3.60   6.05   8.50   5.62   3.58
1958 08   0.49  -2.70  -5.90  -9.91 -22.04 -31.70 -28.82 -24.50 -22.90 -24.43 -25.70 -20.93 -14.00  -6.63   0.50   4.25   8.00   5.31   3.68
1958 09  -0.40   0.62  -1.95  -5.56 -12.20 -24.10 -25.06 -26.50 -25.30 -26.60 -27.70 -24.25 -18.50 -10.68  -2.50   2.25   7.00   4.97   3.48
1958 10   1.75  -0.51   0.18   0.06  -6.83 -11.50 -17.22 -25.80 -30.10 -31.53 -30.40 -27.01 -21.70 -14.36  -6.60  -0.80   5.00   4.30   3.22
1958 11   3.66   2.12   0.08  -0.81   0.02  -7.00  -9.16 -12.40 -31.60 -36.90 -33.70 -29.50 -23.50 -17.35 -11.20  -4.10   3.00   3.05   2.70
1958 12   4.96   4.46   3.16   1.36  -0.96   2.00  -1.92  -7.80 -25.40 -32.84 -33.00 -28.83 -23.00 -19.95 -17.30  -7.40   2.50   1.86   1.87
1959 01   7.35   6.04   5.53   4.85   1.63  -2.00  -3.36  -5.40 -15.30 -22.65 -26.70 -25.77 -22.00 -16.66 -10.60  -4.55   1.50   1.53   1.19
1959 02   8.95   8.97   7.84   6.86   5.91   3.00   1.88   0.20  -7.00 -16.98 -25.80 -26.84 -24.20 -19.46 -13.60  -7.70  -1.80   0.80   0.94
1959 03   8.33  10.95  11.16  10.34   8.38   8.00   5.84   2.60   1.90 -10.60 -25.50 -27.64 -25.00 -20.22 -14.20  -9.35  -4.50  -1.24   0.29
1959 04   7.04  10.20  12.66  13.95  12.62  10.30   9.86   9.20   6.60  -6.46 -21.70 -25.78 -25.50 -23.01 -18.90 -12.45  -6.00  -2.88  -1.02
1959 05   5.75   8.62  11.52  14.14  17.03  16.00  15.68  15.20  12.00   3.96  -6.00 -14.01 -20.00 -22.20 -21.90 -13.95  -6.00  -3.76  -2.02
1959 06   3.81   7.04   9.68  12.33  17.30  21.00  20.16  18.90  17.90  16.68  13.50   4.34  -5.70 -12.58 -17.20 -11.85  -6.50  -3.78  -2.49
1959 07  -0.40   4.70   7.83  10.24  15.10  20.00  23.24  28.10  25.00  23.28  20.70  12.49   4.00  -0.18  -2.50  -4.75  -7.00  -4.09  -2.54
1959 08  -4.00  -0.45   4.15   8.14  12.54  17.00  18.08  19.70  22.30  21.99  19.30  14.14   9.00   7.08   6.10  -0.20  -6.50  -4.37  -2.75
1959 09  -6.30  -4.87  -1.74   2.18   9.97  14.00  13.60  13.00  17.60  19.59  19.00  14.79  10.20   8.95   8.60   3.30  -2.00  -3.89  -2.85
1959 10  -7.50  -7.70  -6.50  -4.26   2.73  11.00  11.08  11.20  11.00  11.83  12.70  11.79  10.60  10.30  10.10   7.30   4.50  -0.99  -2.25
1959 11  -8.27  -9.17  -9.40  -8.90  -5.16   1.00   2.60   5.00   6.90   7.80   8.30   9.44  10.50  11.05  11.20   9.10   7.00   2.92  -0.18
1959 12  -8.89 -10.11 -10.99 -11.44 -10.85  -8.00  -6.72  -4.80   0.80   3.26   4.00   5.09   6.00   6.98   7.80   7.65   7.50   4.41   2.12
1960 01 -10.18 -10.86 -11.96 -12.99 -13.98 -14.00 -11.36  -7.40  -1.80  -0.12  -0.20   1.38   3.00   4.13   5.00   5.75   6.50   4.66   2.95
1960 02 -11.38 -12.44 -13.10 -13.84 -15.88 -17.00 -13.80  -9.00  -5.10  -3.19  -1.80   1.93   5.40   6.62   6.70   4.35   2.00   3.89   3.01
1960 03 -11.32 -13.91 -14.94 -15.64 -16.92 -19.00 -15.80 -11.00  -8.30  -6.58  -4.60   0.31   5.00   6.69   7.00   6.00   5.00   1.38   2.25
1960 04  -6.95 -13.87 -16.53 -17.74 -19.11 -20.00 -18.40 -16.00 -15.20 -14.55 -12.40  -4.71   3.00   5.55   6.00   6.25   6.50   3.19   1.13
1960 05  -0.22  -8.57 -15.14 -19.29 -21.68 -23.00 -21.00 -18.00 -17.00 -18.23 -18.20  -9.89  -0.50   4.22   6.90   7.45   8.00   4.13   2.22
1960 06   2.43  -0.29  -7.59 -15.17 -23.58 -26.00 -24.40 -22.00 -22.80 -24.93 -25.20 -16.92  -7.50  -3.23  -0.80   3.85   8.50   5.03   2.85
1960 07   3.72   2.96   0.60  -4.07 -18.61 -28.00 -26.68 -24.70 -28.10 -28.59 -26.00 -18.59 -11.00  -8.36  -7.50  -3.85  -0.20   4.97   3.37
1960 08   4.74   4.54   3.86   2.46  -5.08 -20.00 -19.60 -19.00 -25.80 -27.78 -25.60 -18.58 -11.50 -10.22 -10.80  -6.40  -2.00  -0.20   2.66
1960 09   5.10   5.79   5.71   5.15   2.97  -2.00  -1.92  -1.80 -13.50 -21.59 -25.50 -23.07 -18.50 -15.74 -13.30  -8.65  -4.00  -1.34  -0.26
1960 10   6.55   6.23   6.77   7.25   6.28   5.00   6.52   8.80   1.50 -12.06 -24.90 -24.68 -20.50 -17.93 -15.20  -9.60  -4.00  -2.51  -1.03
1960 11   7.07   8.01   7.82   7.69   8.85   8.00  10.64  14.60  10.60  -4.30 -20.80 -23.28 -21.50 -20.55 -18.80 -11.90  -5.00  -2.55  -1.66
1960 12   7.47   8.64   9.50   9.90   9.41  11.00  11.24  11.60   7.60  -3.27 -15.50 -20.30 -22.00 -21.91 -20.30 -14.90  -9.50  -3.32  -1.76
1961 01   6.09   9.15  10.37  11.04  12.08  11.00  11.00  11.00   7.00   3.56  -1.30 -12.91 -23.20 -24.06 -21.00 -16.45 -11.90  -6.05  -2.52
1961 02   4.46   7.46  10.29  12.29  13.50  15.00  13.40  11.00   9.70   7.66   2.90 -10.40 -22.80 -24.82 -22.40 -16.20 -10.00  -7.38  -4.18
1961 03   3.08   5.47   8.18  10.94  15.02  16.00  15.60  15.00  11.30   8.13   3.80  -5.63 -15.00 -19.84 -22.00 -15.60  -9.20  -6.23  -4.75
1961 04   1.26   3.78   5.98   8.29  13.39  18.00  17.88  17.70  12.90  11.89  11.40   5.78  -1.00  -6.94 -11.80  -9.20  -6.60  -5.66  -4.07
1961 05  -0.71   1.56   3.88   6.04  10.16  15.00  16.96  19.90  14.80  13.75  14.20  12.14   9.50   6.95   4.30  -1.30  -6.90  -4.15  -3.56
1961 06  -2.72  -0.85   1.15   3.39   7.41  11.00  13.56  17.40  17.40  17.92  18.10  16.18  14.00  13.28  12.70   6.75   0.80  -4.01  -2.77
1961 07  -7.60  -3.28  -1.40   0.04   4.17   8.00  10.52  14.30  19.00  17.74  14.00  13.27  13.00  12.45  11.70   8.00   4.30   0.64  -2.09
1961 08 -12.44  -9.24  -5.29  -2.35   0.08   4.00   5.16   6.90  13.50  14.52  12.60  11.73  10.50   8.68   6.70   4.50   2.30   2.61   0.68
1961 09 -13.98 -15.20 -12.60  -8.75  -2.86  -1.00   0.16   1.90   5.30   7.75   8.90   7.81   6.00   4.86   3.90   2.70   1.50   1.41   1.58
1961 10 -15.07 -17.09 -18.27 -17.68 -10.64  -4.00  -3.56  -2.90   5.80   9.30   9.80  10.54  10.50   9.65   8.30   5.50   2.70   0.99   0.87
1961 11 -14.95 -18.43 -20.41 -21.69 -21.54 -14.80 -13.76 -12.20  -1.00   7.26  12.50  13.91  13.50  13.18  12.40   9.30   6.20   1.84   0.74
1961 12 -14.51 -18.29 -21.55 -24.00 -26.51 -28.10 -25.66 -22.00  -8.90   0.62   6.90  10.01  11.00  10.93   9.90   6.50   3.10   3.76   1.47
1962 01 -14.02 -17.74 -21.20 -24.48 -29.34 -31.80 -28.92 -24.60 -15.50  -4.49   5.50   9.37  10.70  11.52  11.40   8.40   5.40   2.04   2.26
1962 02 -11.15 -17.17 -20.74 -23.76 -29.94 -35.00 -31.68 -26.70 -14.00  -2.30   6.90  10.64  11.80  12.45  12.10   7.85   3.60   3.31   1.52
1962 03  -7.38 -13.68 -19.35 -23.57 -29.07 -35.00 -32.88 -29.70 -17.20  -5.17   4.90  10.54  13.30  13.63  12.40   9.70   7.00   2.40   2.06
1962 04  -7.84  -9.02 -14.41 -20.65 -28.83 -33.70 -31.98 -29.40 -26.00 -15.54  -2.70   5.66  11.30  13.16  12.90  11.50  10.10   4.51   1.83
1962 05  -5.85  -9.60 -10.83 -13.42 -25.29 -33.70 -32.50 -30.70 -27.50 -22.89 -16.10  -4.39   7.10  13.29  16.80  17.30  17.80   6.64   3.21
1962 06  -1.09  -7.20 -10.86 -12.84 -16.48 -28.40 -29.92 -32.20 -29.80 -27.11 -22.80 -14.16  -4.10   5.66  14.20  13.85  13.50  10.98   4.96
1962 07   1.43  -1.37  -6.84 -11.66 -15.69 -16.70 -22.90 -32.20 -28.60 -26.93 -25.20 -20.56 -13.70  -3.33   7.40  10.35  13.30   8.45   6.96
1962 08  -0.88   1.76  -0.43  -4.81 -14.28 -18.80 -23.76 -31.20 -29.20 -28.73 -27.50 -21.74 -13.60  -3.15   7.10   7.65   8.20   8.13   5.58
1962 09  -3.36  -1.05   1.44   1.72  -5.96 -16.10 -22.58 -32.30 -30.00 -29.31 -28.00 -22.29 -14.50  -5.05   4.10   5.15   6.20   5.06   5.01
1962 10  -1.75  -4.13  -2.34   0.47   2.05  -4.40 -14.20 -28.90 -30.40 -31.70 -31.10 -25.44 -17.40  -8.10   1.00   4.50   8.00   3.96   3.20
1962 11   0.97  -2.16  -4.39  -4.73   0.61   4.30  -6.86 -23.60 -32.80 -34.05 -30.20 -25.29 -18.60 -10.25  -1.80   3.60   9.00   5.05   2.75
1962 12   3.82   1.16  -1.74  -4.18  -5.73  -0.30  -3.82  -9.10 -30.90 -34.95 -29.20 -25.63 -20.20 -12.15  -3.60   2.00   7.60   5.58   3.42
1963 01   4.44   4.67   2.46  -0.51  -5.13  -8.50 -11.70 -16.50 -31.60 -33.38 -28.20 -25.93 -22.30 -15.51  -8.00  -3.05   1.90   4.53   3.59
1963 02   6.54   5.42   5.57   4.87  -0.66  -5.30 -13.86 -26.70 -37.20 -37.99 -33.30 -29.64 -24.40 -16.32  -7.80  -3.35   1.10   1.16   2.58
1963 03   8.95   7.96   6.84   6.53   5.91   0.50  -7.94 -20.60 -37.50 -39.95 -34.60 -31.63 -27.10 -19.75 -11.80  -6.45  -1.10   0.60   0.71
1963 04   6.90  10.97  10.49   8.74   7.98   8.70   2.38  -7.10 -31.80 -37.45 -32.80 -30.93 -27.70 -23.12 -17.80  -8.20   1.40  -0.59   0.24
1963 05   6.32   8.44  12.00  14.15  10.66   9.50   7.78   5.20 -14.50 -26.41 -31.70 -30.94 -27.20 -24.13 -20.60 -11.90  -3.20   0.69  -0.21
1963 06   3.65   7.76   9.88  12.09  17.26  13.30  13.46  13.70   6.70  -7.20 -21.50 -25.39 -25.40 -24.63 -22.50 -14.75  -7.00  -2.16   0.12
1963 07   1.77   4.48   8.18  11.24  14.83  22.10  21.98  21.80  14.60   6.95  -1.50 -12.88 -22.30 -24.30 -22.80 -18.20 -13.60  -4.66  -1.71
1963 08  -0.66   2.18   4.59   7.62  13.75  16.00  16.32  16.80  14.30   9.58   3.60  -2.23  -8.20 -14.50 -20.00 -18.85 -17.70  -8.69  -3.56
1963 09  -6.30  -0.75   2.19   4.00   9.36  16.10  15.90  15.60  12.70  10.45   8.50   6.66   4.10  -0.60  -5.90 -11.35 -16.80 -11.05  -6.05
1963 10  -6.96  -7.70  -3.10   1.80   4.92   9.50  10.30  11.50  10.30   8.33   6.50   6.66   7.00   6.15   4.60  -1.60  -7.80 -10.16  -7.25
1963 11  -9.12  -8.50  -9.08  -7.69   2.22   4.70   5.54   6.80   5.50   5.92   7.00   7.06   7.00   7.40   7.60   3.60  -0.40  -4.59  -6.07
1963 12 -10.89 -11.14 -10.61 -10.47  -9.31   2.00   2.32   2.80   2.50   4.37   7.00   8.11   8.80   9.55   9.90   6.40   2.90  -0.12  -2.50
1964 01 -11.32 -13.32 -13.71 -13.32 -12.80 -14.50 -11.10  -6.00  -2.70   0.72   3.50   4.16   4.00   3.95   3.70   2.35   1.00   1.74   0.16
1964 02 -12.48 -13.84 -15.64 -16.87 -16.26 -15.10 -13.78 -11.80  -1.40   2.10   2.00   3.36   4.30   4.59   4.40   2.20   0.00   0.59   1.01
1964 03 -13.43 -15.26 -16.55 -17.90 -20.60 -20.10 -16.50 -11.10   1.70   5.90   5.40   5.82   6.00   6.93   7.80   5.55   3.30   0.13   0.32
1964 04 -14.05 -16.41 -18.15 -19.52 -21.89 -25.20 -21.24 -15.30  -1.80   4.56   6.40   7.23   7.00   7.03   6.80   4.45   2.10   2.02   0.33
1964 05 -14.25 -17.19 -19.43 -21.20 -23.85 -25.70 -24.86 -23.60 -12.10  -1.45   6.80   9.46  10.00  11.25  12.00   9.15   6.30   1.49   1.25
1964 06 -15.21 -17.42 -20.12 -22.53 -25.92 -28.50 -27.86 -26.90 -21.50  -8.25   6.10  10.13  11.00  12.49  13.30  11.10   8.90   4.05   1.29
1964 07 -17.10 -18.59 -20.56 -22.91 -27.55 -30.80 -29.48 -27.50 -25.20 -12.77   2.70  10.10  14.50  17.28  18.40  15.35  12.30   5.72   2.87
1964 08 -17.17 -20.91 -22.44 -23.71 -28.02 -32.60 -31.40 -29.60 -26.90 -13.10   3.70  10.52  14.00  16.67  17.80  13.30   8.80   7.56   4.03
1964 09 -16.25 -21.01 -24.58 -26.84 -28.99 -32.80 -32.88 -33.00 -27.80 -13.90   2.00   9.14  13.00  15.59  16.50  11.90   7.30   5.45   4.75
1964 10 -16.40 -19.87 -24.17 -28.18 -32.79 -34.20 -33.60 -32.70 -26.70 -12.51   3.20   9.50  12.50  14.93  16.00  12.15   8.30   4.62   3.50
1964 11 -16.40 -20.06 -23.33 -26.73 -34.46 -39.50 -37.18 -33.70 -26.30 -12.84   1.50   8.18  12.00  15.18  17.00  13.95  10.90   5.31   3.13
1964 12 -17.26 -20.04 -23.31 -26.68 -32.71 -40.50 -38.22 -34.80 -28.80 -14.24   1.90   8.44  11.00  11.25   9.80   7.25   4.70   6.58   3.70
1965 01 -15.56 -21.13 -23.93 -26.23 -32.63 -37.60 -36.00 -33.60 -27.80 -14.34   0.70   7.70  11.20  12.38  11.70   7.40   3.10   2.88   3.90
1965 02 -13.59 -19.04 -24.14 -28.13 -32.09 -38.30 -36.50 -33.80 -27.30 -14.89  -1.20   6.74  11.50  12.86  12.10   9.05   6.00   2.06   1.79
1965 03  -9.58 -16.65 -21.84 -26.36 -34.38 -37.30 -35.90 -33.80 -28.50 -17.04  -3.70   5.32  11.40  13.22  12.70  10.90   9.10   3.89   1.58
1965 04  -5.73 -11.74 -18.12 -24.03 -32.27 -41.00 -39.28 -36.70 -32.90 -25.53 -15.70  -3.64   7.00  11.51  12.80   9.35   5.90   5.57   2.80
1965 05   0.78  -7.07 -12.81 -18.06 -29.41 -36.80 -36.20 -35.30 -30.20 -27.33 -24.20 -16.60  -7.20   3.35  13.20  13.95  14.70   4.06   3.46
1965 06   3.41   0.92  -6.00 -12.83 -22.15 -33.70 -33.98 -34.40 -30.70 -28.80 -26.80 -21.83 -14.90  -5.29   4.70  11.10  17.50   9.33   3.33
1965 07   1.50   4.19   2.27  -2.56 -15.73 -23.70 -27.66 -33.60 -32.00 -30.47 -28.70 -27.04 -23.30 -14.08  -3.30   5.30  13.90  10.82   6.38
1965 08  -0.56   1.85   4.34   4.83  -3.23 -16.90 -24.42 -35.70 -32.10 -30.32 -29.10 -27.02 -23.40 -16.29  -8.10   0.45   9.00   8.51   6.90
1965 09  -0.74  -0.68   1.40   3.90   5.86  -0.10 -15.22 -37.90 -37.00 -34.80 -32.10 -30.88 -28.50 -22.14 -14.30  -2.85   8.60   5.62   5.28
1965 10   0.83  -0.91  -0.98   0.15   4.79   8.80  -4.84 -25.30 -35.70 -36.22 -31.90 -30.95 -28.90 -23.30 -16.30  -5.30   5.70   5.27   3.69
1965 11   3.09   1.00  -0.64  -1.47   0.21   4.70   2.42  -1.00 -26.40 -35.36 -34.40 -32.53 -28.80 -25.61 -22.00 -11.60  -1.20   3.29   3.28
1965 12   4.66   3.76   1.88   0.08  -1.79  -1.00   0.12   1.80 -15.50 -26.98 -32.90 -32.42 -29.00 -26.11 -22.80 -15.50  -8.20  -1.04   1.68
1966 01   3.90   5.70   5.07   3.48   0.08  -2.40   1.44   7.20   0.80 -14.43 -30.20 -32.58 -30.10 -26.73 -22.30 -16.95 -11.60  -5.28  -1.20
1966 02   1.99   4.78   6.49   7.02   4.23   0.80   3.28   7.00   6.20  -5.64 -20.70 -27.07 -29.20 -26.91 -22.20 -15.35  -8.50  -7.14  -3.74
1966 03  -1.22   2.47   5.11   7.05   8.56   6.10   8.98  13.30   7.80   1.01  -7.00 -17.87 -26.40 -26.39 -22.50 -14.75  -7.00  -5.27  -4.50
1966 04  -3.18  -1.47   1.83   4.93   8.63  11.10  11.42  11.90  13.00  10.57   5.70  -0.31  -6.90 -13.44 -18.80 -13.50  -8.20  -4.44  -3.38
1966 05  -3.63  -3.89  -2.55   0.11   6.04   9.80  11.88  15.00  15.30  15.09  13.60   9.68   3.70  -5.35 -14.40 -12.10  -9.80  -5.20  -3.02
1966 06  -7.19  -4.40  -4.35  -4.47   0.18   6.30  10.38  16.50  16.20  16.49  16.00  11.96   7.20   3.99   1.30  -3.60  -8.50  -6.09  -3.56
1966 07  -8.23  -8.80  -6.54  -4.56  -5.43  -1.50   5.06  14.90  17.80  17.10  14.80  14.31  13.40  10.54   7.00   2.25  -2.50  -5.08  -3.94
1966 08 -11.77 -10.03 -10.35 -10.07  -5.58  -7.70   0.02  11.60  19.00  19.24  15.30  10.96   6.80   5.23   4.60   1.80  -1.00  -1.51  -2.93
1966 09 -12.97 -14.38 -12.99 -11.89 -12.25  -6.20   0.60  10.80  17.30  19.41  18.20  14.36  10.00   8.00   6.80   3.80   0.80  -0.55  -0.89
1966 10 -12.54 -15.87 -17.34 -17.14 -14.53 -16.60  -8.60   3.40  13.10  16.52  16.00  14.64  12.50  10.75   9.20   8.70   8.20   0.80  -0.24
1966 11 -12.67 -15.33 -18.37 -20.68 -20.91 -17.10  -9.98   0.70  10.40  14.21  14.40  14.25  13.00  10.76   8.20   6.70   5.20   5.02   1.07
1966 12 -12.87 -15.50 -17.94 -20.54 -25.27 -26.50 -18.50  -6.50   9.50  15.13  14.80  14.90  14.00  12.77  11.30   9.60   7.90   3.37   3.10
1967 01 -12.51 -15.75 -18.26 -20.41 -25.14 -30.40 -21.84  -9.00   7.40  14.03  14.80  15.39  14.50  12.51  10.10   9.20   8.30   4.97   2.43
1967 02 -13.66 -15.29 -18.15 -21.03 -24.96 -29.10 -22.98 -13.80   6.70  14.34  14.50  14.98  14.00  12.30  10.20   8.25   6.30   5.12   3.32
1967 03 -13.82 -16.71 -18.30 -20.14 -25.71 -29.20 -24.72 -18.00   3.30  10.65  10.50  12.68  13.50  12.17   9.80   6.25   2.70   3.80   3.24
1967 04 -12.92 -16.91 -19.68 -21.57 -24.65 -30.30 -26.26 -20.20  -6.70   3.39  10.10  12.87  13.50  13.69  13.20  11.15   9.10   1.95   2.25
1967 05 -12.67 -15.81 -19.46 -22.64 -26.36 -28.40 -26.04 -22.50 -18.50  -7.38   5.30  10.32  13.00  15.95  18.10  16.80  15.50   5.96   1.76
1967 06 -13.39 -15.49 -18.31 -21.53 -27.68 -31.50 -29.30 -26.00 -24.00 -16.32  -6.00   2.99  10.50  14.62  16.70  16.15  15.60   9.72   4.42
1967 07 -13.61 -16.38 -18.38 -20.47 -26.35 -32.60 -31.76 -30.50 -26.30 -22.23 -16.50  -4.79   7.00  13.63  17.50  16.40  15.30   9.76   6.44
1967 08 -13.73 -16.64 -19.21 -21.38 -25.05 -30.30 -30.98 -32.00 -27.30 -21.88 -15.00  -4.36   6.00  12.29  16.10  13.85  11.60   9.44   6.44
1967 09 -13.52 -16.80 -19.52 -21.96 -26.14 -29.00 -30.72 -33.30 -32.30 -26.16 -16.60  -4.83   5.90  11.02  13.20  11.50   9.80   7.20   5.98
1967 10 -13.30 -16.53 -19.57 -22.31 -26.85 -31.00 -32.20 -34.00 -32.70 -25.73 -15.90  -6.79   1.20   6.12   9.10   8.90   8.70   6.10   4.63
1967 11 -12.99 -16.27 -19.26 -22.10 -27.28 -31.50 -31.90 -32.50 -31.50 -26.96 -19.70  -9.97  -0.30   6.44  11.10   9.10   7.10   5.39   3.96
1967 12  -9.70 -15.90 -18.95 -21.75 -27.04 -32.00 -31.84 -31.60 -30.40 -28.87 -24.90 -13.45  -1.20   6.09  10.70   9.30   7.90   4.48   3.45
1968 01   1.46 -11.98 -18.38 -21.40 -26.61 -31.50 -31.90 -32.50 -30.50 -26.38 -19.60  -7.62   4.00   9.60  12.00   7.75   3.50   4.77   3.03
1968 02   5.17   1.74  -9.93 -20.50 -26.18 -31.00 -31.72 -32.80 -31.70 -27.78 -20.80  -8.45   3.30   7.97   9.40   8.60   7.80   2.37   2.84
1968 03   6.09   6.32   3.41  -3.64 -25.09 -30.50 -31.50 -33.00 -32.30 -30.02 -25.30 -15.54  -5.00   2.61   8.20   6.70   5.20   4.78   1.88
1968 04   5.66   7.45   7.78   6.46  -4.63 -29.00 -31.92 -36.30 -31.70 -28.97 -25.80 -17.98  -8.90  -0.34   7.00   5.85   4.70   3.24   2.98
1968 05   5.26   6.93   8.62   9.57   7.84   1.20  -9.72 -26.10 -29.90 -28.23 -23.20 -17.69 -11.60  -5.71  -0.30   4.00   8.30   3.09   2.11
1968 06   6.79   6.43   7.82   9.62  11.69  11.40   1.32 -13.80 -31.20 -32.66 -26.50 -26.17 -24.50 -17.64  -9.10  -0.20   8.70   5.22   2.31
1968 07   7.96   8.29   7.97   8.35  11.76  14.30   9.10   1.30 -19.40 -29.11 -31.40 -31.59 -28.00 -19.75  -9.80  -1.25   7.30   5.39   3.48
1968 08   6.96   9.74  10.25   9.92  10.23  13.60  14.24  15.20  -0.30 -17.20 -30.80 -32.84 -29.30 -23.08 -15.20  -5.95   3.30   4.41   3.47
1968 09   6.01   8.52  11.07  12.68  12.11  11.50  11.90  12.50   6.10 -12.50 -31.90 -32.96 -27.50 -21.00 -13.40  -6.05   1.30   1.99   2.63
1968 10   5.33   7.36   9.69  11.97  15.48  14.90  15.78  17.10  11.60  -8.95 -31.30 -33.50 -28.40 -21.40 -12.90  -4.75   3.40   0.90   1.17
1968 11   7.01   6.50   8.20  10.51  14.65  19.00  19.08  19.20  12.30  -3.51 -20.70 -27.88 -29.10 -23.36 -14.40  -6.00   2.40   2.09   0.75
1968 12   8.85   8.56   8.08   8.56  12.86  16.60  18.32  20.90  14.60   1.34 -13.80 -24.15 -29.50 -25.73 -17.90  -9.45  -1.00   1.36   1.31
1969 01   8.62  10.82  10.69  10.10  10.48  14.60  15.44  16.70  14.40   9.13   0.40 -16.17 -29.40 -26.18 -16.70  -9.95  -3.20  -0.72   0.66
1969 02   5.83  10.57  12.81  13.44  12.33  11.60  11.60  11.60  12.00  10.82   6.10  -8.69 -21.80 -20.73 -14.30  -9.65  -5.00  -2.08  -0.63
1969 03   3.64   7.14  11.43  14.86  16.41  15.20  15.44  15.80  13.30  12.49  10.40   0.74  -9.40 -14.17 -16.20 -11.65  -7.10  -3.22  -1.51
1969 04   0.46   4.48   7.68  11.23  18.17  20.30  18.54  15.90  16.20  16.21  15.10  11.50   6.20  -1.16  -8.50  -8.45  -8.40  -4.50  -2.28
1969 05  -5.30   0.62   4.52   7.46  13.78  21.50  19.90  17.50  16.60  16.08  15.10  11.74   8.40   7.44   7.00   0.55  -5.90  -5.16  -3.08
1969 06  -8.25  -6.46  -1.31   3.79   9.15  14.60  15.16  16.00  20.70  18.68  14.00  13.24  12.80  10.93   8.60   4.60   0.60  -3.43  -3.24
1969 07 -10.47 -10.07  -8.51  -5.31   4.67   9.60  12.00  15.60  16.10  15.84  15.10  14.10  13.30  13.51  13.90  11.40   8.90   0.72  -1.80
1969 08 -11.16 -12.79 -12.57 -11.47  -6.41   4.30   7.82  13.10  14.70  14.46  13.80  15.31  16.80  16.65  15.70  12.05   8.40   5.56   1.08
1969 09 -10.73 -13.65 -15.28 -15.77 -13.98 -10.80  -3.04   8.60  10.80  11.05  10.40  10.34  10.70  12.16  13.70  11.15   8.60   5.27   3.64
1969 10 -10.91 -13.12 -15.79 -17.97 -19.25 -17.90 -11.26  -1.30   2.40   5.98   8.80   9.44   9.60  10.88  12.20  10.85   9.50   5.43   3.51
1969 11 -10.89 -13.34 -15.35 -17.61 -21.96 -23.80 -19.64 -13.40  -6.30  -2.38   0.30   5.33   9.80  11.60  12.00  10.15   8.30   5.90   3.66
1969 12  -8.92 -13.34 -15.81 -17.47 -21.54 -26.20 -23.08 -18.40 -12.60  -8.95  -5.40   2.29   9.70  13.27  14.70  10.75   6.80   5.14   3.82
1970 01  -7.40 -10.90 -14.77 -18.37 -21.37 -24.90 -23.26 -20.80 -16.30 -13.33  -9.60   0.05   9.20  11.97  11.90   9.40   6.90   4.27   3.29
1970 02   0.58  -9.12 -12.88 -15.24 -22.45 -25.00 -23.96 -22.40 -23.10 -20.50 -14.70  -4.07   6.00   9.58  10.00   5.25   0.50   4.06   2.83
1970 03   4.94   0.67  -7.94 -14.89 -18.68 -26.60 -24.88 -22.30 -24.90 -22.70 -16.60  -6.28   3.70   7.89   9.30   7.05   4.80   0.49   2.22
1970 04   5.30   6.04   2.45  -3.91 -18.20 -20.50 -21.46 -22.90 -27.50 -27.51 -22.90 -11.75   0.30   7.61  12.10   7.15   2.20   2.90   0.64
1970 05   4.74   6.50   7.30   5.92  -4.90 -21.50 -22.26 -23.40 -28.00 -28.75 -25.80 -18.48  -9.30  -0.29   7.70   7.10   6.50   1.55   1.73
1970 06   6.29   5.79   7.23   8.75   7.17  -1.30 -10.86 -25.20 -30.30 -31.29 -29.40 -26.79 -22.00 -13.28  -3.60   2.55   8.70   4.16   1.34
1970 07   7.48   7.68   7.28   7.53  10.70  11.10   0.18 -16.20 -31.20 -33.35 -29.00 -28.33 -26.10 -19.55 -11.50  -2.05   7.40   5.40   2.92
1970 08   7.75   9.14   9.35   9.23   9.23  12.90   3.70 -10.10 -31.70 -35.67 -30.60 -29.81 -27.60 -22.00 -15.10  -5.55   4.00   4.50   3.48
1970 09   4.92   9.50  11.05  11.33  11.26  10.20   5.16  -2.40 -31.00 -37.63 -32.70 -32.12 -29.90 -24.83 -18.40  -6.90   4.60   2.53   2.73
1970 10   3.88   6.04  10.17  13.24  13.85  14.00  13.00  11.50 -15.40 -28.92 -32.90 -31.86 -27.60 -23.79 -19.40  -9.25   0.90   2.73   1.72
1970 11   6.49   4.72   6.38   9.78  16.17  16.80  14.96  12.20   4.20 -13.45 -31.20 -32.79 -28.90 -25.18 -20.40 -10.30  -0.20   0.52   1.54
1970 12   6.88   7.93   6.48   5.99  12.00  19.50  19.22  18.80  16.40   0.58 -18.90 -27.12 -29.90 -27.29 -21.60 -12.30  -3.00  -0.24   0.26
1971 01   5.51   8.43   9.56   9.16   7.35  12.50  14.50  17.50  17.20   9.26  -3.20 -18.16 -29.20 -26.51 -18.30 -11.25  -4.20  -1.93  -0.36
1971 02   5.08   6.75   9.35  11.42  11.16   7.50  10.42  14.80  13.90  10.73   4.50  -8.70 -20.40 -21.36 -17.80 -11.70  -5.60  -2.69  -1.36
1971 03   3.58   6.22   7.77   9.66  13.96  14.60  15.28  16.30  12.00  11.15  10.20   2.69  -6.20 -13.46 -19.00 -13.35  -7.70  -3.60  -1.88
1971 04  -0.59   4.42   7.08   8.60  11.83  16.80  17.00  17.30  14.40  13.05  11.80   8.70   3.90  -4.13 -12.30 -10.05  -7.80  -4.83  -2.53
1971 05  -3.15  -0.70   3.68   7.69  10.52  13.00  14.56  16.90  15.10  14.02  13.20  12.17  10.50   7.29   3.40  -3.60 -10.60  -5.00  -3.21
1971 06  -7.42  -3.81  -1.43   1.37   9.41  12.10  13.14  14.70  15.90  15.16  13.50  12.64  11.60   9.82   7.70   3.25  -1.20  -6.26  -3.52
1971 07  -9.54  -9.05  -5.98  -2.76   1.74  10.70  12.82  16.00  19.60  20.54  20.00  20.11  19.30  16.23  12.40   8.90   5.40  -0.48  -3.46
1971 08 -11.59 -11.65 -11.23  -9.65  -3.35  -0.40   3.92  10.40  15.90  17.07  16.00  15.98  15.50  13.92  11.90   8.95   6.00   3.41   0.16
1971 09 -12.37 -14.16 -14.34 -13.97 -11.74  -4.90  -0.46   6.20  11.60  12.98  12.20  12.04  11.60  10.96   9.90   4.20  -1.50   3.45   2.30
1971 10 -12.33 -15.13 -16.88 -17.66 -17.06 -16.20  -7.48   5.60  10.30  12.63  13.40  13.71  13.50  13.18  12.40   6.90   1.40  -0.82   1.74
1971 11 -12.76 -15.08 -17.65 -19.79 -21.57 -21.00 -15.04  -6.10   5.30  10.72  12.50  13.97  14.40  14.20  13.30   8.65   4.00   0.98  -0.33
1971 12 -13.51 -15.59 -17.73 -19.98 -24.19 -26.40 -21.44 -14.00   3.10  10.07  11.20  12.61  13.10  13.71  13.90  10.65   7.40   2.65   0.84
1972 01 -13.83 -16.53 -18.50 -20.32 -24.43 -28.80 -25.40 -20.30  -0.90   7.49   9.50  11.82  12.90  13.52  13.40   9.20   5.00   4.54   2.00
1972 02 -13.46 -16.91 -19.44 -21.52 -24.85 -28.50 -25.98 -22.20  -3.10   5.34   7.40   8.97   9.50  10.69  11.60   9.15   6.70   3.20   2.83
1972 03 -11.72 -16.48 -19.79 -22.32 -26.31 -29.20 -28.36 -27.10 -12.70  -0.71   8.30  13.12  15.20  15.36  14.20  11.90   9.60   4.32   2.24
1972 04  -9.19 -14.34 -18.67 -22.50 -27.29 -31.20 -29.28 -26.40 -22.00 -10.05   4.00  12.11  16.70  16.74  14.50  13.05  11.60   6.10   3.07
1972 05  -1.56 -11.30 -16.40 -20.10 -27.52 -32.10 -30.30 -27.60 -24.60 -22.32 -18.70  -9.27   0.80   7.33  11.80  11.10  10.40   7.22   4.18
1972 06   5.36  -1.98 -10.84 -17.95 -24.60 -32.20 -30.40 -27.70 -26.10 -25.00 -23.10 -18.13 -11.80  -4.84   2.00   7.60  13.20   6.63   4.69
1972 07   8.24   6.53   0.13  -7.86 -21.98 -27.80 -28.08 -28.50 -26.80 -25.85 -24.60 -21.18 -17.00 -12.92  -8.70   0.15   9.00   8.10   4.60
1972 08   7.18  10.09   8.81   4.73  -9.71 -25.10 -25.86 -27.00 -27.80 -26.90 -25.00 -23.11 -21.00 -18.99 -16.50  -5.65   5.20   5.48   5.06
1972 09   3.61   8.81  11.70  12.21   5.68  -7.50 -14.50 -25.00 -27.00 -27.72 -27.30 -25.66 -23.50 -21.74 -19.60 -10.00  -0.40   3.03   3.35
1972 10   1.76   4.43   9.09  13.11  14.88  10.60   3.16  -8.00 -25.70 -29.86 -26.90 -26.21 -25.20 -24.78 -23.80 -12.60  -1.40  -0.29   1.60
1972 11   2.01   2.15   4.41   8.05  16.04  19.30  15.98  11.00  -6.20 -19.72 -28.40 -29.02 -26.50 -25.29 -23.50 -14.00  -4.50  -1.00  -0.27
1972 12   1.44   2.46   2.64   3.57   9.90  18.60  17.56  16.00  12.80  -0.92 -17.20 -23.48 -25.50 -24.49 -21.50 -16.45 -11.40  -3.10  -0.89
1973 01  -0.78   1.78   2.80   3.22   4.40   9.60   9.96  10.50  12.30  11.05   5.80  -7.71 -20.50 -23.07 -21.20 -14.70  -8.20  -7.01  -2.56
1973 02  -4.81  -0.92   1.54   3.03   3.94   3.90   5.14   7.00   9.10  11.77  11.70   1.47 -10.00 -15.20 -17.40 -12.40  -7.40  -5.11  -4.41
1973 03  -8.18  -5.85  -2.34   0.73   3.71   4.80   5.28   6.00   7.10   9.37  10.60   6.26   1.00  -1.38  -2.90  -7.20 -11.50  -4.80  -3.32
1973 04  -9.64  -9.99  -8.08  -5.04   0.92   4.20   5.12   6.50   7.80   9.38  10.40   9.29   7.50   6.20   4.60  -3.15 -10.90  -7.18  -3.48
1973 05 -11.64 -11.77 -12.06 -11.50  -6.11   0.20   3.32   8.00  12.00  13.73  13.80  12.83  11.50  11.06  10.50   4.40  -1.70  -6.45  -4.71
1973 06 -11.91 -14.23 -14.52 -14.41 -14.02  -9.20  -3.92   4.00   9.50  12.30  13.20  13.10  12.50  12.40  12.20   9.35   6.50  -0.73  -3.60
1973 07 -11.51 -14.57 -16.79 -17.91 -17.61 -18.40 -11.84  -2.00   3.70   7.65  10.30  12.37  13.60  13.87  13.40  10.15   6.90   4.09   0.11
1973 08 -11.38 -14.08 -16.89 -19.35 -21.88 -21.20 -16.52  -9.50   3.50   8.73   9.80  12.36  14.00  13.98  13.00   9.75   6.50   4.31   2.74
1973 09 -11.70 -13.92 -16.42 -18.91 -23.66 -26.80 -22.48 -16.00   1.20   7.67   8.50  11.53  13.50  13.47  12.40   9.90   7.40   4.11   2.82
1973 10 -13.32 -14.30 -16.23 -18.58 -23.13 -27.90 -24.94 -20.50  -7.50   2.07   8.50  11.93  13.00  12.11  10.20   9.30   8.40   4.68   2.79
1973 11 -13.98 -16.28 -17.33 -18.37 -22.72 -26.80 -25.28 -23.00 -17.50  -6.87   4.50   9.72  12.00  11.88  10.40   9.65   8.90   5.28   3.17
1973 12 -15.39 -17.08 -19.12 -20.86 -22.47 -26.50 -25.90 -25.00 -22.90 -12.25   1.00   7.90  11.50  11.22   9.00   8.10   7.20   5.51   3.54
1974 01 -12.27 -18.84 -20.64 -21.87 -25.48 -26.20 -26.72 -27.50 -28.30 -16.95  -1.40   6.25  10.50  11.35  10.20   8.30   6.40   4.48   3.52
1974 02  -3.64 -15.09 -21.62 -24.72 -26.75 -30.80 -30.60 -30.30 -27.80 -16.67  -2.90   4.34   8.50   9.60   8.80   6.35   3.90   3.91   2.91
1974 03   0.17  -4.48 -14.55 -23.80 -30.20 -31.40 -32.24 -33.50 -28.50 -16.58  -3.10   3.30   7.00   9.57  10.80   9.05   7.30   2.58   2.41
1974 04   2.38   0.19  -3.95 -10.74 -29.13 -36.40 -35.64 -34.50 -26.20 -19.27 -12.90  -5.53   1.50   7.45  12.00   9.95   7.90   4.60   1.96
1974 05   3.26   2.90   1.05  -2.05 -13.27 -33.40 -33.44 -33.50 -28.10 -25.43 -22.50 -13.61  -4.00   2.59   7.40   8.10   8.80   4.99   3.09
1974 06   5.05   3.97   3.59   2.73  -2.57 -10.50 -19.10 -32.00 -28.90 -28.10 -26.70 -19.12 -10.50  -4.65   0.00   5.55  11.10   5.61   3.37
1974 07   6.93   6.17   5.20   4.46   3.31  -0.90 -13.14 -31.50 -29.70 -29.18 -28.20 -23.81 -18.00 -11.60  -5.10   2.50  10.10   6.91   3.88
1974 08   7.94   8.46   7.80   6.94   5.45   5.20  -9.08 -30.50 -30.80 -31.23 -30.40 -25.54 -19.50 -14.50  -9.70  -0.25   9.20   6.29   4.51
1974 09   6.12   9.72  10.46   9.98   8.47   6.70  -5.58 -24.00 -33.40 -34.15 -29.80 -25.23 -20.00 -15.47 -11.10  -2.40   6.30   5.65   4.10
1974 10   5.01   7.50  10.76  12.94  12.18  10.80   2.88  -9.00 -32.90 -36.30 -28.80 -24.33 -19.50 -15.85 -12.50  -4.65   3.20   3.82   3.53
1974 11   5.56   6.13   8.33  11.09  15.81  15.20  12.32   8.00 -22.30 -31.93 -29.20 -25.39 -19.80 -15.96 -12.50  -5.90   0.70   1.90   2.30
1974 12   7.61   6.78   7.12   8.66  13.59  19.40  17.24  14.00   3.50 -14.18 -30.00 -27.52 -20.00 -16.28 -13.20  -8.55  -3.90   0.25   1.08
1975 01   6.06   9.32   8.88   8.02  10.61  14.90  15.14  15.50   6.00 -12.80 -30.50 -28.51 -21.00 -16.99 -13.40  -7.80  -2.20  -2.37  -0.17
1975 02   5.27   7.43  10.37  11.89   9.81  11.70  13.02  15.00  13.40  -3.80 -24.00 -26.49 -23.00 -18.25 -12.50  -9.90  -7.30  -1.59  -1.45
1975 03   5.10   6.45   8.36  10.79  14.49  11.40  12.64  14.50  13.70   4.43  -8.50 -19.52 -26.20 -21.97 -13.60 -10.60  -7.60  -4.59  -1.42
1975 04   4.08   6.25   7.56   8.89  13.22  18.50  17.70  16.50  15.70  11.53   5.00  -3.57 -11.10 -13.54 -13.50 -10.40  -7.30  -4.75  -3.06
1975 05   3.21   5.00   6.95   8.64  10.89  14.60  16.32  18.90  17.40  13.89   9.30   5.57   0.50  -8.85 -18.30 -13.65  -9.00  -4.64  -3.12
1975 06   1.10   3.95   5.64   7.24  10.57  12.20  14.52  18.00  19.80  19.59  17.10  11.03   4.20  -0.75  -4.60  -6.20  -7.80  -5.59  -3.20
1975 07  -2.03   1.38   4.09   6.03   8.87  12.40  13.84  16.00  17.90  18.05  17.00  15.96  13.60   8.29   2.10  -3.35  -8.80  -4.93  -3.61
1975 08  -2.97  -2.47   0.45   3.66   7.38   9.80  11.68  14.50  14.80  15.15  15.30  15.01  14.00  11.72   8.70   1.70  -5.30  -5.37  -3.34
1975 09  -3.58  -3.63  -3.21  -1.66   4.49   8.30  10.50  13.80  14.70  15.27  15.20  13.59  11.80  11.28  10.80   4.45  -1.90  -3.18  -3.30
1975 10  -5.12  -4.38  -4.43  -4.26  -1.98   4.40   7.44  12.00  14.40  15.04  14.50  13.52  12.30  11.40  10.50   7.75   5.00  -0.91  -1.86
1975 11  -9.05  -6.22  -5.32  -5.39  -5.20  -4.20   1.84  10.90  14.20  15.39  15.00  13.36  11.60  11.31  11.40   9.25   7.10   3.22  -0.10
1975 12  -9.92 -11.06  -8.79  -6.42  -6.58  -6.60  -0.04   9.80  13.20  15.17  15.70  14.29  12.40  11.62  11.00   7.35   3.70   4.31   2.28
1976 01 -11.35 -12.11 -13.14 -12.82  -7.85  -8.00  -2.40   6.00  10.60  12.51  12.90  13.74  13.80  12.22   9.90   6.15   2.40   2.27   2.61
1976 02 -11.71 -13.87 -14.69 -15.30 -15.61  -9.50  -3.10   6.50  12.60  13.67  12.40  13.18  13.60  12.40  10.50   6.90   3.30   1.54   1.41
1976 03 -11.39 -14.32 -16.38 -17.67 -18.71 -20.70 -11.22   3.00   9.90  12.41  12.30  12.06  11.40  10.96  10.40   7.75   5.10   2.14   1.09
1976 04 -10.76 -13.94 -16.67 -18.91 -21.60 -22.20 -17.32 -10.00   2.40   8.21   9.90  10.81  10.90  11.50  11.90   9.60   7.30   3.29   1.55
1976 05 -10.32 -13.16 -16.08 -18.82 -23.13 -26.10 -24.86 -23.00 -16.70  -6.95   3.00   7.92  10.60  12.06  12.40  10.80   9.20   4.65   2.34
1976 06  -9.34 -12.62 -15.25 -17.86 -23.02 -27.30 -26.78 -26.00 -22.60 -19.46 -14.60  -2.84   8.20  11.01  10.40   9.45   8.50   5.74   3.22
1976 07  -6.89 -11.44 -14.61 -17.07 -21.86 -26.80 -27.48 -28.50 -26.30 -25.49 -22.00  -6.26   9.20  12.65  11.30   9.30   7.30   5.28   3.75
1976 08  -5.45  -8.44 -12.49 -16.32 -20.89 -25.20 -26.12 -27.50 -26.70 -27.29 -24.80  -8.89   7.20  11.23  10.50   9.25   8.00   4.60   3.41
1976 09  -3.22  -6.69  -9.55 -12.52 -19.97 -24.20 -25.12 -26.50 -26.10 -24.77 -20.50  -7.74   4.80   8.54   8.60   7.40   6.20   4.94   3.10
1976 10  -4.14  -3.93  -6.85 -10.27 -15.35 -23.10 -24.14 -25.70 -27.50 -28.28 -25.70 -13.76  -1.10   4.27   6.50   6.45   6.40   3.89   3.14
1976 11  -3.41  -5.05  -4.89  -5.96 -12.58 -16.50 -20.18 -25.70 -30.60 -28.88 -23.00 -16.24  -8.70  -1.35   5.10   5.60   6.10   4.00   2.59
1976 12   1.91  -4.22  -6.16  -6.11  -7.34 -14.20 -18.76 -25.60 -30.30 -29.88 -25.70 -19.20 -11.60  -4.46   1.80   2.90   4.00   3.74   2.63
1977 01   2.97   2.33  -2.93  -7.48  -7.46  -7.00 -15.00 -27.00 -29.20 -29.35 -27.00 -20.56 -13.00  -6.99  -1.90   1.80   5.50   2.57   2.32
1977 02   3.21   3.64   3.13   0.45  -9.14  -9.20 -16.92 -28.50 -28.30 -28.18 -26.80 -21.52 -15.00  -8.98  -3.50   0.20   3.90   3.38   1.81
1977 03   3.72   3.92   4.32   4.31   0.46 -11.10 -18.86 -30.50 -28.40 -28.00 -27.50 -24.04 -18.90 -11.82  -4.50  -0.75   3.00   2.41   2.12
1977 04   4.64   4.54   4.68   5.03   5.25   3.80  -8.12 -26.00 -30.80 -31.15 -28.50 -24.98 -20.10 -13.66  -7.00  -2.10   2.80   1.87   1.53
1977 05   4.67   5.68   5.71   5.49   6.15   6.80  -0.92 -12.50 -20.40 -25.64 -28.00 -26.62 -23.20 -19.16 -14.50  -5.75   3.00   1.76   1.22
1977 06   6.39   5.70   6.51   7.25   6.71   7.30   5.38   2.50  -2.30 -14.19 -26.60 -28.58 -26.80 -24.52 -21.10 -11.90  -2.70   1.65   1.18
1977 07   7.91   7.80   7.20   7.14   8.85   8.00   9.00  10.50   7.50  -2.02 -14.00 -23.49 -29.20 -26.64 -20.50 -14.25  -8.00  -1.91   0.68
1977 08   8.27   9.67   9.64   9.20   8.74  11.00  11.40  12.00  11.30   2.83  -9.10 -19.13 -26.10 -25.75 -22.00 -16.10 -10.20  -5.10  -1.65
1977 09   6.18  10.13  11.60  11.94  11.23  10.00  11.40  13.50  11.50   9.27   4.40  -9.69 -22.90 -25.32 -23.00 -15.35  -7.70  -6.29  -3.54
1977 10   3.52   7.59  11.27  13.73  14.58  14.00  14.80  16.00  13.50  11.97   8.80  -1.63 -12.90 -20.07 -24.40 -16.10  -7.80  -4.83  -3.98
1977 11   1.95   4.32   7.90  11.74  16.78  17.90  17.94  18.00  15.10  13.61  12.00   8.19   2.30  -7.50 -17.40 -13.65  -9.90  -4.97  -3.21
1977 12  -1.79   2.41   4.73   7.15  14.39  20.10  20.34  20.70  17.60  17.02  17.00  14.72  10.90   4.69  -2.00  -5.60  -9.20  -6.18  -3.45
1978 01  -5.93  -2.15   1.70   4.76   8.79  15.90  17.70  20.40  17.80  17.92  18.50  15.81  12.00   7.91   3.80  -0.50  -4.80  -5.59  -4.04
1978 02  -9.15  -7.22  -3.88  -0.17   5.84   8.70  11.42  15.50  16.90  16.33  14.90  14.65  13.90  11.24   7.90   3.55  -0.80  -2.84  -3.38
1978 03 -11.13 -11.17  -9.49  -6.96  -0.16   6.30   8.58  12.00  13.80  13.64  12.80  13.80  14.20  11.81   8.40   4.40   0.40  -0.45  -1.59
1978 04 -10.75 -13.62 -13.90 -12.76  -8.46  -2.00   2.00   8.00  12.40  12.68  11.40  13.26  14.50  12.07   8.50   7.00   5.50   0.46  -0.21
1978 05 -11.23 -13.14 -15.71 -17.39 -15.56 -12.10 -10.66  -8.50   0.80   7.30  11.50  14.17  15.00  13.49  10.90   8.50   6.10   3.47   0.68
1978 06 -11.35 -13.74 -15.59 -17.44 -21.23 -19.90 -20.30 -20.90  -9.60   1.16  10.00  14.88  16.50  14.11  10.00   8.45   6.90   3.86   2.34
1978 07 -12.81 -13.87 -15.93 -18.14 -21.34 -26.20 -25.12 -23.50 -15.40  -3.52   8.50  15.44  18.40  15.67  10.50   8.15   5.80   4.28   2.61
1978 08 -12.27 -15.68 -16.89 -17.84 -22.18 -24.60 -26.92 -30.40 -13.40  -1.05   7.50  13.69  16.50  14.50  10.40   8.55   6.70   3.67   2.75
1978 09 -13.65 -15.00 -18.00 -20.45 -21.83 -26.30 -28.34 -31.40 -12.00   1.21   9.30  13.57  14.50  12.45   9.00   7.90   6.80   4.20   2.50
1978 10 -14.42 -16.68 -17.98 -19.81 -24.98 -25.30 -28.18 -32.50 -17.40  -4.50   5.50  11.37  14.00  13.37  11.00   8.95   6.90   4.27   2.79
1978 11 -13.64 -17.64 -19.88 -21.26 -24.25 -30.30 -29.06 -27.20 -22.80  -9.93   4.80  10.92  13.40  13.47  11.90   9.40   6.90   4.32   2.83
1978 12 -13.03 -16.69 -20.37 -23.29 -25.98 -27.80 -28.28 -29.00 -24.10 -11.90   2.00   8.80  12.50  14.02  13.80  10.30   6.80   4.32   2.86
1979 01 -11.78 -15.94 -19.30 -22.66 -28.47 -31.10 -31.62 -32.40 -26.60 -12.17   3.70   9.21  11.00  11.99  11.60   6.85   2.10   4.07   2.85
1979 02  -8.06 -14.45 -18.49 -21.55 -27.73 -33.90 -33.74 -33.50 -26.30 -10.33   6.50  10.79  11.00  11.56  11.20   7.50   3.80   1.39   2.35
1979 03  -5.52  -9.88 -15.61 -20.72 -26.37 -32.00 -32.88 -34.20 -27.60 -18.14  -7.50   2.79  10.50  11.72   9.90   7.15   4.40   2.41   1.04
1979 04  -2.18  -6.78 -10.81 -15.33 -25.35 -30.50 -31.50 -33.00 -25.70 -20.32 -14.70  -3.91   6.00   9.50  10.00   7.70   5.40   2.80   1.64
1979 05   1.79  -2.70  -6.92 -10.89 -18.80 -29.40 -30.44 -32.00 -26.80 -25.30 -23.60 -14.36  -4.00   3.02   8.20   9.50  10.80   3.60   1.93
1979 06   6.28   2.15  -1.95  -5.99 -13.35 -19.90 -22.94 -27.50 -26.50 -26.43 -25.60 -21.07 -15.00  -8.39  -1.80   4.45  10.70   6.76   2.78
1979 07   9.77   7.64   3.88   0.06  -7.37 -14.40 -17.44 -22.00 -29.60 -30.10 -26.40 -22.39 -18.00 -14.80 -11.80  -3.15   5.50   6.49   4.47
1979 08   7.55  11.97  10.49   6.96   0.02  -7.00 -11.40 -18.00 -27.00 -29.85 -28.40 -24.38 -19.90 -18.54 -17.60  -6.60   4.40   3.40   3.92
1979 09   4.99   9.26  13.36  14.85   8.46   2.00  -3.36 -11.40 -25.40 -29.22 -27.40 -26.68 -25.00 -22.56 -19.30  -8.80   1.70   2.65   2.17
1979 10   4.14   6.12   9.91  13.99  18.10  12.10   8.46   3.00 -19.50 -27.78 -28.00 -29.67 -29.00 -24.74 -18.80  -9.65  -0.50   0.98   1.56
1979 11   4.52   5.06   6.78   9.54  17.13  23.70  18.14   9.80  -1.40 -15.14 -27.10 -29.82 -28.50 -25.86 -21.80 -12.50  -3.20  -0.42   0.49
1979 12   4.83   5.53   6.05   6.99  11.71  19.00  15.48  10.20   5.60  -4.29 -15.50 -22.18 -26.00 -26.23 -24.20 -17.05  -9.90  -2.28  -0.48
1980 01   4.38   5.90   6.53   7.13   8.57  12.20  12.36  12.60  13.90  10.48   2.70 -11.68 -24.50 -26.31 -23.20 -14.35  -5.50  -6.02  -2.00
1980 02   0.38   5.40   7.10   7.55   8.71   9.40   9.88  10.60  13.50  10.80   3.40  -9.94 -22.00 -24.16 -21.80 -13.30  -4.80  -3.42  -3.67
1980 03  -1.75   0.49   4.91   8.45   9.23  10.40  10.88  11.60  12.80  12.99   9.40  -5.69 -20.20 -22.14 -19.00 -13.60  -8.20  -3.15  -2.21
1980 04  -3.43  -2.12  -0.13   2.94  10.33  10.90  12.42  14.70  14.60  14.36  11.70   1.33 -10.00 -16.69 -20.60 -14.45  -8.30  -5.14  -2.33
1980 05  -4.97  -4.18  -3.02  -1.47   3.66  12.40  14.44  17.50  14.90  13.78  12.40   7.82   2.00  -4.43 -10.40 -10.30 -10.20  -5.28  -3.41
1980 06  -6.31  -6.07  -5.38  -4.44  -1.76   2.00   8.12  17.30  15.50  15.26  15.30  13.28  11.00   9.90   8.70  -0.25  -9.20  -6.35  -3.63
1980 07  -7.16  -7.72  -7.57  -7.02  -5.41  -3.20   2.08  10.00  14.00  15.80  15.90  14.69  13.00  12.03  11.00   5.75   0.50  -5.37  -4.13
1980 08  -8.77  -8.75  -9.25  -9.48  -8.56  -7.20  -1.92   6.00  14.90  16.85  15.10  14.42  13.50  12.72  11.70   6.70   1.70   0.36  -2.85
1980 09 -11.10 -10.70 -10.64 -10.94 -11.58 -10.80  -5.48   2.50  12.00  14.35  13.10  13.84  14.00  12.55  10.40   6.70   3.00   1.12   0.33
1980 10 -11.77 -13.57 -13.37 -12.84 -13.37 -14.30  -7.78   2.00   8.20  11.28  12.50  13.96  14.50  13.37  11.50   9.30   7.10   2.05   0.84
1980 11 -11.96 -14.40 -16.11 -16.81 -15.69 -16.00 -11.36  -4.40   3.30   7.95  10.70  13.56  15.10  14.09  11.90   8.95   6.00   4.40   1.65
1980 12 -10.99 -14.63 -16.93 -18.76 -20.53 -19.00 -14.40  -7.50  -0.60   5.86  11.10  13.79  14.80  14.40  13.00   9.00   5.00   3.72   2.84
1981 01  -8.00 -13.47 -17.02 -19.41 -22.93 -25.40 -19.44 -10.50  -1.20   5.55  10.10  12.94  14.00  13.12  11.10   6.80   2.50   3.03   2.39
1981 02  -7.13  -9.79 -14.63 -19.18 -23.73 -27.20 -21.56 -13.10  -0.80   5.92   9.10  11.86  13.00  12.05  10.00   6.55   3.10   1.59   1.82
1981 03  -6.46  -8.73 -11.17 -14.52 -23.46 -27.90 -24.54 -19.50  -5.10   3.43   7.90  10.88  12.00  11.58  10.20   7.80   5.40   2.04   1.10
1981 04  -6.62  -7.90  -9.94 -12.19 -17.81 -27.30 -26.38 -25.00 -15.00  -3.80   6.00   9.77  11.10  12.21  12.50  10.00   7.50   3.47   1.52
1981 05  -7.33  -8.09  -9.23 -10.79 -14.92 -19.00 -21.60 -25.50 -22.00 -18.45 -13.60  -4.30   5.00  10.34  13.40  10.80   8.20   4.73   2.45
1981 06  -8.29  -8.97  -9.71 -10.49 -13.21 -17.00 -19.48 -23.20 -24.10 -25.39 -24.10 -13.83  -2.00   5.36  10.40  10.00   9.60   5.20   3.18
1981 07 -10.03 -10.11 -10.63 -11.48 -12.83 -15.00 -18.20 -23.00 -26.00 -28.00 -26.90 -18.02  -7.00   1.89   9.20   9.50   9.80   6.02   3.54
1981 08  -8.14 -12.28 -12.67 -12.36 -14.03 -15.00 -18.40 -23.50 -27.90 -29.70 -27.80 -19.11  -8.50   0.02   7.00   7.40   7.80   6.06   4.00
1981 09  -4.94  -9.98 -13.80 -15.99 -15.11 -16.80 -19.60 -23.80 -31.00 -32.07 -28.10 -19.54  -9.50  -1.36   5.30   5.85   6.40   4.83   3.87
1981 10   0.85  -6.10 -10.97 -14.61 -19.52 -17.90 -20.82 -25.20 -31.10 -32.54 -29.50 -20.68 -10.00  -1.01   6.50   6.80   7.10   4.04   3.10
1981 11   2.46   1.03  -4.98 -11.18 -17.89 -24.20 -24.88 -25.90 -33.00 -33.47 -28.90 -20.31 -11.00  -5.25  -1.10   3.25   7.60   4.47   2.73
1981 12   3.31   3.00   1.75  -1.60 -13.70 -20.00 -21.92 -24.80 -32.10 -33.57 -30.20 -21.95 -13.00  -8.40  -5.50  -0.80   3.90   4.61   3.00
1982 01   3.46   4.05   3.83   3.03  -2.06 -14.90 -18.22 -23.20 -32.30 -33.93 -30.20 -23.16 -15.00  -8.93  -4.00  -0.75   2.50   2.39   2.78
1982 02   3.59   4.23   4.78   4.96   3.68   1.10  -8.90 -23.90 -31.10 -33.25 -31.00 -24.19 -16.00  -9.85  -4.80  -1.60   1.60   1.53   1.48
1982 03   4.44   4.38   4.98   5.54   6.05   5.20  -6.20 -23.30 -33.50 -35.40 -31.60 -24.98 -17.40 -12.17  -7.90  -2.15   3.60   1.08   0.95
1982 04   6.82   5.41   5.21   5.71   6.77   7.60  -2.16 -16.80 -34.60 -37.07 -31.00 -25.91 -20.50 -17.22 -14.40  -4.80   4.80   2.31   0.86
1982 05   6.84   8.34   7.28   6.07   6.98   8.00   4.16  -1.60 -26.40 -32.83 -29.10 -27.02 -24.00 -21.64 -19.20 -12.45  -5.70   2.58   1.61
1982 06   7.49   8.37   9.71  10.07   7.42   8.20   8.92  10.00  -2.50 -16.75 -28.30 -28.83 -25.50 -23.18 -20.50 -15.35 -10.20  -3.76   0.94
1982 07   7.82   9.16   9.97  10.95  12.27   8.80   9.92  11.60  11.60   0.38 -14.50 -21.44 -25.00 -25.53 -24.00 -18.85 -13.70  -6.54  -2.81
1982 08   6.08   9.58  10.96  11.68  13.40  15.90  16.54  17.50  16.60  13.45   7.20  -5.80 -18.00 -21.45 -21.00 -17.15 -13.30  -8.57  -4.58
1982 09   2.77   7.46  10.74  12.94  14.28  15.60  17.00  19.10  15.70  13.88  11.90   6.84   0.50  -6.79 -13.60 -13.35 -13.10  -8.33  -5.64
1982 10  -2.44   3.43   7.86  11.34  15.81  17.00  16.80  16.50  13.70  13.42  13.70  11.34   8.00   4.20   0.20  -5.55 -11.30  -8.14  -5.50
1982 11  -6.67  -2.95   2.32   7.31  13.90  18.90  18.86  18.80  12.70  10.99  11.70  12.35  12.50  10.54   7.50  -0.25  -8.00  -6.95  -5.26
1982 12  -9.26  -8.13  -4.87  -0.52   8.98  15.50  15.98  16.70  17.40  17.18  16.40  15.47  14.50  13.91  13.10   7.00   0.90  -4.65  -4.36
1983 01 -10.64 -11.32 -10.45  -8.22  -0.57   9.10  10.30  12.10  14.30  15.38  15.70  15.83  15.50  14.63  13.20   7.30   1.40   0.58  -2.43
1983 02 -12.78 -12.99 -13.56 -13.65  -9.99  -3.40   1.56   9.00  13.10  14.75  15.10  16.11  16.50  15.47  13.60   8.00   2.40   0.92   0.42
1983 03 -13.12 -15.63 -16.00 -16.01 -16.65 -14.00  -8.00   1.00   8.70  12.22  13.40  15.07  16.00  15.90  14.80   7.10  -0.60   1.38   0.68
1983 04 -12.22 -16.04 -18.40 -19.73 -19.57 -21.00 -14.76  -5.40   7.30  12.21  12.80  14.33  15.00  14.78  13.70   7.25   0.80  -0.32   0.70
1983 05  -8.53 -14.99 -18.79 -21.13 -24.09 -23.40 -22.04 -20.00 -13.60  -1.47  10.80  13.74  13.50  13.26  12.40  10.75   9.10   0.84  -0.11
1983 06  -8.45 -10.43 -16.07 -21.43 -25.84 -29.50 -28.82 -27.80 -25.30 -16.96  -6.00   3.66  11.00  12.74  11.80  10.10   8.40   5.67   1.16
1983 07  -8.97 -10.33 -12.14 -15.52 -26.20 -30.40 -30.52 -30.70 -30.00 -24.46 -15.20  -1.81  10.00  12.99  12.10   9.90   7.70   5.24   3.71
1983 08  -9.45 -10.95 -12.16 -13.70 -19.05 -30.70 -31.22 -32.00 -31.50 -26.59 -17.70  -2.87  10.30  12.80  10.90   9.55   8.20   4.85   3.42
1983 09  -6.95 -11.59 -13.26 -13.97 -16.75 -19.90 -25.86 -34.80 -31.50 -26.91 -19.90  -6.54   5.90   9.91  10.20   8.65   7.10   5.09   3.25
1983 10  -7.39  -8.51 -12.58 -15.93 -17.08 -19.50 -25.34 -34.10 -32.50 -27.89 -20.30  -7.94   3.70   8.57  10.20   8.75   7.30   4.46   3.29
1983 11  -8.76  -9.01  -9.85 -12.47 -19.46 -20.10 -25.74 -34.20 -33.30 -30.50 -25.20 -15.19  -4.80   1.86   6.40   6.75   7.10   4.57   2.97
1983 12  -4.06 -10.76 -11.52 -11.01 -15.29 -23.50 -28.34 -35.60 -33.10 -30.10 -25.50 -16.65  -7.20  -0.16   5.20   5.40   5.60   4.39   3.01
1984 01  -1.07  -5.00 -10.98 -14.93 -13.48 -16.30 -24.90 -37.80 -33.10 -30.57 -27.50 -18.59  -8.90  -2.13   2.90   3.70   4.50   3.46   2.80
1984 02   0.91  -1.33  -4.86  -9.46 -18.22 -15.60 -23.56 -35.50 -33.20 -31.46 -28.30 -19.66  -9.80  -1.71   4.80   4.00   3.20   2.77   2.21
1984 03   1.49   1.11  -0.78  -3.67 -11.64 -22.90 -27.82 -35.20 -32.00 -30.63 -28.30 -19.66  -9.50  -0.79   6.40   5.20   4.00   2.04   1.74
1984 04   3.41   1.81   1.36   0.55  -4.53 -11.00 -20.72 -35.30 -34.00 -32.04 -28.80 -23.36 -16.00  -5.67   4.60   4.75   4.90   2.54   1.41
1984 05   4.94   4.15   2.72   1.67   0.64  -3.70 -16.18 -34.90 -34.10 -33.38 -32.10 -29.69 -25.30 -16.92  -7.50  -0.50   6.50   3.14   1.75
1984 06   5.81   6.04   5.44   4.23   2.04   2.00  -5.96 -17.90 -34.70 -38.29 -34.60 -32.46 -29.10 -24.57 -19.20  -7.00   5.20   4.02   2.19
1984 07   8.21   7.08   7.17   7.26   5.14   2.50  -0.46  -4.90 -26.70 -35.20 -35.40 -34.08 -30.80 -27.63 -23.80 -12.20  -0.60   3.02   2.57
1984 08   8.69  10.03   9.15   8.34   8.86   7.00   6.08   4.70 -14.40 -27.16 -34.00 -34.44 -31.70 -29.18 -25.80 -15.15  -4.50  -0.54   1.58
1984 09   7.15  10.64  12.03  12.04  10.20  11.30  10.62   9.60  -0.50 -17.47 -33.50 -34.95 -31.60 -29.30 -26.20 -16.65  -7.10  -2.93  -0.64
1984 10   5.98   8.77  12.04  14.22  14.69  12.10  11.66  11.00   7.60  -9.01 -28.10 -32.15 -30.90 -28.36 -24.20 -15.40  -6.60  -4.43  -2.13
1984 11   8.80   7.28   9.45  12.95  17.38  18.60  17.48  15.80  12.50   6.41  -2.20 -14.95 -25.80 -27.70 -25.30 -16.30  -7.30  -4.16  -2.90
1984 12   7.41  10.78   9.76   9.21  15.85  20.80  21.36  22.20  19.20  14.22   6.50  -7.41 -20.20 -24.22 -23.90 -15.60  -7.30  -4.57  -2.81
1985 01   6.02   9.07  12.13  13.45  11.30  17.90  18.58  19.60  18.30  15.64  11.00   2.64  -6.60 -14.67 -20.90 -14.05  -7.20  -4.57  -3.03
1985 02   2.48   7.39  10.29  12.90  16.39  11.90  12.58  13.60  12.00  10.46   8.70   6.89   3.30  -5.17 -14.20 -10.45  -6.70  -4.49  -3.02
1985 03  -2.44   3.09   7.75  11.11  15.80  21.20  19.72  17.50  16.90  15.85  14.10  11.17   7.60   3.61  -0.40  -5.00  -9.60  -4.32  -2.94
1985 04  -3.33  -2.99   1.69   7.13  13.60  17.70  18.30  19.20  19.20  16.72  13.70  13.83  13.80  10.94   7.00   0.10  -6.80  -5.90  -3.07
1985 05  -5.71  -4.05  -3.67  -1.67   8.76  15.40  17.04  19.50  19.60  17.09  13.90  13.33  13.20  12.33  11.00   5.20  -0.60  -4.01  -3.70
1985 06  -8.73  -6.95  -5.38  -4.49  -1.96   8.80  10.84  13.90  16.20  14.62  11.50  10.58  10.00   9.12   8.00   3.25  -1.50  -0.41  -2.20
1985 07  -9.49 -10.67  -9.23  -7.33  -5.49  -5.40   0.68   9.80  13.10  12.32  10.00  10.29  10.80  10.30   9.40   7.00   4.60  -0.69  -0.34
1985 08  -9.33 -11.61 -12.83 -12.56  -8.94  -6.70  -0.74   8.20   9.90   9.44   8.50  10.31  11.90  10.79   8.70   6.45   4.20   2.87  -0.01
1985 09 -11.41 -11.39 -13.34 -15.27 -15.32 -11.50  -4.06   7.10   7.60   8.29   9.30  11.19  12.70  12.47  11.40   8.55   5.70   2.69   1.87
1985 10 -13.79 -13.93 -13.92 -14.73 -18.65 -19.70 -12.42  -1.50   0.70   5.15  10.00  12.52  13.60  12.96  11.40   9.10   6.80   3.62   1.89
1985 11 -15.02 -16.85 -17.11 -16.96 -18.02 -22.40 -18.56 -12.80 -10.40  -0.82  10.20  13.27  13.50  12.85  11.30   8.30   5.30   4.20   2.48
1985 12 -15.23 -18.37 -20.16 -20.99 -20.71 -20.70 -22.10 -24.20 -15.60  -1.61  11.90  14.96  14.10  12.69  10.30   5.90   1.50   3.17   2.67
1986 01 -15.10 -18.64 -21.60 -23.76 -25.63 -25.20 -26.16 -27.60  -6.90   7.18  15.20  16.81  15.20  13.67  11.50   6.80   2.10   0.96   1.82
1986 02 -15.70 -18.46 -21.65 -24.76 -29.05 -31.30 -28.26 -23.70  -2.50   9.45  14.80  16.88  16.30  14.79  12.40   8.05   3.70   1.38   0.68
1986 03 -15.47 -19.21 -21.88 -24.35 -30.28 -34.70 -32.54 -29.30 -12.40   2.92  14.20  16.29  14.70  13.56  11.90   9.00   6.10   2.42   1.03
1986 04 -16.41 -18.91 -22.26 -25.41 -29.78 -35.60 -34.24 -32.20 -25.50  -8.12  10.60  15.01  14.70  14.37  13.00   9.15   5.30   3.79   1.78
1986 05 -15.86 -20.07 -22.52 -24.91 -31.07 -34.60 -33.68 -32.30 -30.60 -19.26  -4.20   6.29  13.40  14.51  12.70  11.05   9.40   3.49   2.45
1986 06 -13.66 -19.41 -23.34 -26.34 -30.48 -36.80 -35.28 -33.00 -31.90 -27.32 -19.40  -6.13   6.00   9.51   9.40   9.80  10.20   5.92   2.61
1986 07  -8.13 -16.77 -22.34 -26.29 -32.20 -35.30 -34.58 -33.50 -31.70 -28.81 -23.20 -10.07   2.80   7.74   9.20   8.90   8.60   6.33   3.98
1986 08  -5.91  -9.98 -17.67 -24.72 -32.16 -38.30 -37.18 -35.50 -33.30 -29.37 -22.90 -10.80   1.00   6.55   9.00   7.00   5.00   5.24   4.07
1986 09  -7.09  -7.22 -10.65 -16.46 -30.25 -37.40 -36.64 -35.50 -33.10 -29.50 -23.40 -10.80   1.50   6.79   8.80   7.60   6.40   3.19   3.21
1986 10  -6.98  -8.67  -8.89 -10.20 -20.21 -34.80 -34.64 -34.40 -33.00 -29.93 -24.10 -11.95   0.20   6.12   9.10   9.30   9.50   4.14   2.21
1986 11  -5.20  -8.54 -10.17 -10.97 -12.52 -20.50 -26.30 -35.00 -32.80 -29.95 -25.40 -16.56  -6.90   0.83   7.00   7.40   7.80   5.88   2.97
1986 12  -0.12  -6.39  -9.68 -11.63 -13.39 -13.00 -22.36 -36.40 -31.70 -29.42 -26.70 -18.06  -8.40  -0.98   4.80   4.55   4.30   4.74   3.77
1987 01   4.68  -0.20  -6.01 -10.41 -14.23 -16.40 -30.00 -37.40 -32.60 -28.90 -26.00 -19.20  -8.60  -1.80   3.90  10.20   5.70   1.10  -3.40
1987 02   3.19   5.74   1.81  -4.06 -12.75 -16.70 -33.60 -35.60 -30.70 -28.00 -26.60 -20.90 -11.30  -2.10   3.20   8.70   6.10   4.60  -2.90
1987 03   2.59   3.91   6.25   5.87  -5.04 -14.40 -32.50 -33.10 -31.10 -30.90 -27.10 -21.90 -17.10  -7.20   1.90   7.30   2.20  -3.70   0.30
1987 04   5.21   3.14   4.08   6.24   7.09  -3.50 -12.50 -35.00 -32.80 -30.30 -27.00 -24.40 -23.60 -18.80  -7.40   5.10  -0.40  -6.30  -2.60
1987 05   6.06   6.37   4.63   3.70   7.65  11.60   7.40  -4.50 -29.50 -28.90 -26.80 -28.30 -26.60 -24.80 -19.20  -1.20  -0.20  -1.50  -2.90
1987 06   5.94   7.42   7.77   7.06   4.54   8.20   6.90   6.00  -1.10 -15.20 -24.70 -36.70 -27.30 -29.30 -23.10 -15.40  -7.40  -5.20  -6.30
1987 07   5.26   7.28   8.72   9.44   8.59   4.50   7.90  10.80   9.30   2.10  -6.30 -17.90 -28.10 -31.10 -26.70 -20.40 -14.50 -10.80  -6.10
1987 08   5.51   6.42   8.13  10.01  11.53  11.60  15.30  14.50  12.40  11.20   9.20   4.30  -1.40  -8.50 -22.40 -21.30 -14.80 -10.00 -13.50
1987 09   1.84   6.77   7.90   8.53  12.24  14.00  16.20  14.50  14.50  16.50  13.80  13.10   9.10   4.80  -6.20 -20.90 -13.30  -9.00 -11.40
1987 10  -2.27   2.29   6.85   9.71  10.45  14.40  15.50  13.90  13.30  12.80  11.70  12.40  11.30  11.40   6.80  -1.80 -11.50 -11.00 -13.90
1987 11  -4.37  -2.77   1.20   5.79  11.86  11.60  13.00  14.70  12.40   9.30   7.70   8.60   9.30   8.20   8.30   4.90  -3.70  -9.70  -8.70
1987 12  -6.91  -5.32  -3.85  -1.39   7.13  14.50  14.10  10.60   8.60   5.80   5.70   7.00   7.80   7.60   6.60   6.20  -0.20  -2.70  -5.20
1988 01  -9.34  -8.43  -7.00  -5.54  -1.64   6.60   8.30  10.10   8.90   6.00   5.40   4.60   9.10  11.10   9.10   7.40   0.70  -6.50  -6.30
1988 02 -10.48 -11.42 -10.70  -9.42  -6.75  -4.30  -0.80   0.50   1.20   3.00   4.60   9.30   9.50  11.20   7.70   4.30   4.90  -0.40  -1.90
1988 03 -11.16 -12.82 -13.79 -13.75 -11.49  -8.90  -9.40 -15.80  -5.30   3.90   7.80  11.00  10.00   8.80   7.40   2.00   2.00   1.90  -6.50
1988 04 -13.75 -13.63 -15.01 -16.51 -16.78 -14.70 -18.60 -21.50 -15.00   1.40   7.00   9.60   9.40   9.40   6.80   4.90   1.90  -3.80  -7.00
1988 05 -14.85 -16.80 -16.84 -17.10 -20.17 -21.00 -25.00 -28.10 -25.80  -6.30   5.00  10.90  12.30  11.50   9.20   5.80   2.20  -3.30 -10.00
1988 06 -13.20 -18.16 -20.10 -20.83 -20.92 -24.30 -27.50 -27.40 -29.70 -20.40  -2.30   7.50  10.50  11.20   9.80   9.70   6.10   1.10  -3.70
1988 07  -7.22 -16.20 -21.17 -23.69 -25.43 -24.50 -29.50 -30.90 -32.20 -25.10 -10.20   3.20   9.60  10.40  10.50  10.00   6.00   3.40  -0.40
1988 08  -6.38  -8.85 -16.77 -23.92 -28.96 -31.20 -32.90 -37.20 -32.70 -22.40  -6.30   6.00   9.90  12.50  10.30   6.60   5.70   5.00  -2.00
1988 09 -11.46  -7.75  -9.56 -14.98 -29.26 -34.60 -38.70 -37.30 -33.40 -21.70  -5.00   6.20   9.40  13.00  10.40   8.40   5.30   0.70  -1.90
1988 10 -15.15 -13.98 -10.71  -9.39 -18.41 -34.10 -36.60 -37.10 -32.10 -23.10  -8.10   3.00   9.30  11.60  10.00   7.60   5.40   2.60  -2.40
1988 11 -15.87 -18.52 -17.75 -15.25 -11.52 -18.00 -32.50 -33.40 -30.60 -23.20 -10.10   0.40  11.00  10.90  10.60   8.20   5.80   2.50  -5.10
1988 12 -15.82 -19.40 -21.89 -22.80 -18.59 -12.20 -27.70 -33.50 -30.60 -24.80  -9.90   1.10  13.60  14.90  12.00   6.30   2.30  -1.90  -0.70
1989 01 -12.31 -19.37 -22.84 -25.33 -27.82 -24.40 -33.80 -35.30 -32.80 -26.10  -8.40   2.90  11.80  13.80  11.70  12.00   6.80   1.30  -5.90
1989 02  -4.49 -15.13 -21.98 -26.26 -30.97 -34.80 -34.00 -33.90 -31.00 -20.50  -4.00   6.00  10.90  12.60  10.20   8.40   3.70  -0.30  -8.50
1989 03  -0.26  -5.53 -14.98 -23.74 -32.11 -36.60 -37.40 -35.90 -30.30 -18.40  -3.80   5.90  12.40  13.60  11.70  10.10   4.10   1.50  -0.20
1989 04   1.47  -0.34  -4.97 -11.93 -29.06 -37.80 -39.40 -35.30 -32.30 -28.60 -15.00   1.00   9.70   9.80  10.00   7.70   6.70   3.30   0.20
1989 05   1.96   1.80   0.29  -2.84 -14.71 -32.90 -40.30 -34.70 -32.70 -30.90 -25.00 -15.40  -2.00   7.20   9.20  11.90   7.70   1.10  -4.20
1989 06   4.29   2.38   2.12   1.62  -3.53 -12.80 -30.50 -36.70 -33.80 -32.50 -28.10 -23.50 -17.20  -4.10  -0.30   6.20   5.80   1.80   1.60
1989 07   7.27   5.22   3.44   2.43   1.95  -1.70  -8.70 -34.60 -36.30 -36.40 -30.60 -26.80 -23.10 -13.20  -3.60   6.60   4.20   2.30  -3.30
1989 08   8.55   8.87   7.09   5.15   2.98   3.40   2.00  -9.10 -35.00 -32.40 -30.00 -28.10 -23.80 -14.50  -5.80   3.10   3.60   3.10   5.90
1989 09   6.49  10.48  11.11   9.90   6.27   3.50   1.90  -7.60 -34.60 -31.60 -31.00 -29.80 -23.90 -19.70 -11.90  -1.30   4.10   7.30   1.30
1989 10   6.99   7.93  11.40  14.01  12.06   8.40   5.30   1.20 -23.50 -31.10 -30.70 -29.10 -25.00 -22.40 -15.20  -3.70   0.30   3.00   1.10
1989 11   7.58   8.54   9.38  11.36  17.10  15.70  12.10   7.30  -9.50 -29.70 -30.60 -26.40 -23.90 -21.90 -16.60  -8.80  -2.00  -1.90  -4.20
1989 12   5.80   9.28  10.32  10.86  13.93  21.20  24.90  21.80  12.70 -14.70 -28.20 -28.50 -24.80 -24.40 -18.40  -8.30   0.30   0.70  -5.00
1990 01   2.61   7.13  10.47  12.36  13.28  14.90  16.90  17.30  13.10   6.40  -4.20 -24.70 -29.20 -27.90 -21.40 -10.20  -1.40  -1.50  -4.40
1990 02   1.61   3.20   7.12  11.19  15.10  15.70  18.00  19.20  14.60   7.90  -3.20 -14.90 -26.50 -27.30 -21.00 -11.80  -8.10  -7.10 -10.00
1990 03  -0.76   1.98   3.52   5.81  13.70  18.20  22.20  21.20  18.10  17.70  10.90   3.10  -8.10 -24.20 -22.10  -7.30  -3.10  -3.40 -11.60
1990 04  -2.81  -0.90   1.64   3.59   7.16  15.40  15.90  18.10  16.60  15.20  12.40   9.80   4.90  -4.90 -14.20 -13.60  -8.10 -10.20  -4.30
1990 05  -2.24  -3.46  -2.04   0.60   4.41   6.40  11.40  12.00  13.60  16.00  12.40   9.80   8.50   8.70   2.20 -10.50 -10.90  -8.70  -9.20
1990 06  -6.82  -2.70  -3.44  -4.16   0.77   4.80   9.30  13.00  17.20  18.50  15.20  15.40  12.20  14.50  11.80   4.30  -5.00 -10.10  -9.00
1990 07 -11.14  -8.30  -4.55  -2.77  -5.05  -0.20   2.90   8.20  11.80  15.80  13.10  12.30   9.40   9.90   8.60   6.00   1.20  -4.90  -3.40
1990 08 -12.22 -13.62 -11.31  -7.77  -3.41  -7.50   1.90  10.80  13.40  15.40  13.50  13.80  11.00  12.60   7.80   6.70   1.90   2.00  -1.30
1990 09 -12.36 -14.94 -16.35 -15.86  -9.45  -3.00   2.10  12.90  14.30  13.40  13.00  12.70  12.30  11.60   9.50   7.70   3.20   1.40  -1.30
1990 10 -13.12 -15.11 -17.46 -19.39 -19.33 -13.30  -1.60  10.30  13.90  11.90  10.90  10.40  11.60   9.80   7.00   9.50   6.00   1.10   1.30
1990 11 -13.53 -16.04 -17.92 -19.81 -23.69 -25.20 -15.70   1.40  11.00  11.00  11.00  13.40  13.20  13.50  10.40   9.50   7.60   2.80   0.20
1990 12 -13.37 -16.55 -18.93 -20.84 -24.23 -28.40 -24.60 -10.70   2.50   9.00  13.40  12.60  12.00  11.80   7.90   9.00   5.60   2.40  -0.80
1991 01 -13.25 -16.35 -19.31 -21.84 -25.48 -28.30 -25.70 -15.90   0.70   8.30  11.40  10.40  10.00   5.50   6.00   7.40   2.60   0.50  -6.00
1991 02 -13.96 -16.20 -19.02 -21.86 -26.70 -30.20 -28.20 -15.70   4.40  11.30  12.70  13.70  10.60   9.80  10.60  12.00   6.30   1.70  -0.80
1991 03 -14.80 -17.06 -19.12 -21.43 -26.74 -31.50 -27.70 -19.30   1.00  10.30  10.50  10.70   7.20   5.10   5.00   5.40   5.20   4.10  -0.30
1991 04 -13.92 -18.11 -20.34 -22.05 -26.22 -31.20 -26.50 -24.00 -18.20  -2.60   9.20  13.20  10.10   6.20   7.00   6.60   5.70   6.90   1.20
1991 05 -11.44 -17.05 -20.97 -23.84 -26.96 -30.50 -27.20 -26.00 -25.60 -21.40  -6.70   3.50   6.70   8.70   9.00  11.30   7.90   3.50  -1.80
1991 06  -4.88 -14.03 -19.39 -23.44 -29.14 -31.80 -27.50 -30.00 -28.60 -27.60 -20.90 -16.40  -2.40   1.70   3.50   8.40   7.10   7.90   1.40
1991 07   5.00  -6.06 -14.75 -21.01 -28.68 -34.70 -36.10 -31.00 -29.30 -27.00 -25.00 -18.90 -10.00  -7.80  -2.10   4.90   5.20   6.60   5.70
1991 08   8.56   6.08  -3.58 -13.64 -25.73 -33.20 -29.40 -29.30 -28.70 -29.80 -23.10 -19.80 -12.80  -8.60  -3.00   2.40   2.40  -1.60  -5.30
1991 09   7.01  10.48   8.70   2.51 -16.76 -29.20 -29.80 -27.80 -28.80 -26.50 -21.50 -17.50 -13.40  -6.00  -1.60   2.10   3.40  -0.60  -5.60
1991 10   7.35   8.58  11.61  12.87   2.91 -16.90 -29.40 -28.80 -26.90 -25.00 -22.20 -20.40 -12.10  -3.40  -0.80   1.70   3.80   6.30   3.50
1991 11   7.34   8.98  10.15  11.97  15.67   9.10   1.40 -23.50 -27.50 -24.20 -24.20 -20.20 -14.80  -5.00  -1.20   4.40   2.70   0.80  -3.10
1991 12   6.38   8.98  10.54  11.76  14.67  20.90   9.90  -4.00 -26.80 -29.80 -25.30 -22.60 -17.50  -8.30  -2.00   6.60   3.60  -3.50  -3.00
1992 01   3.80   7.82  10.33  12.05  14.37  16.10  10.40  -3.30 -28.90 -27.80 -25.30 -23.40 -16.00  -9.00  -2.10   7.20  -0.50  -5.50  -1.90
1992 02   1.94   4.68   8.34  11.44  14.74  17.00  13.20  -1.50 -29.90 -28.30 -25.40 -21.80 -17.10  -3.60  -1.00   9.40   4.70   2.20  -3.00
1992 03   3.21   2.36   4.67   7.95  14.00  17.30  14.70   0.30 -28.90 -28.20 -26.00 -22.70 -18.30  -6.50  -0.90   3.80  -1.10  -5.90  -2.60
1992 04   6.38   3.90   2.95   3.81   9.76  16.10  14.50   7.80 -25.00 -28.80 -26.20 -25.20 -21.70 -14.30  -4.80   4.50   2.60   1.90  -7.60
1992 05   7.26   7.79   5.73   3.71   4.70  10.10  11.40  11.00  -4.20 -29.00 -27.50 -24.20 -23.50 -20.70 -15.90  -2.90   1.20   2.40  -5.10
1992 06   7.91   8.88   9.43   8.71   4.53   4.20   6.30  11.50   6.60  -2.90 -26.80 -30.00 -29.60 -25.70 -21.40 -12.80  -3.20  -0.40  -4.30
1992 07   8.87   9.66  10.49  11.32  10.60   5.60   9.20   9.00   7.90   6.00  -7.90 -28.60 -30.60 -27.60 -24.30 -16.30  -7.60  -2.50  -4.60
1992 08   7.05  10.86  11.85  12.12  13.84  14.30  16.50  17.10  15.30  10.60   0.80 -11.00 -27.30 -31.30 -25.90 -15.60 -10.00  -4.70  -5.50
1992 09   6.18   8.64  12.06  14.50  14.82  16.70  17.00  17.60  15.90  11.90   7.50  -0.20  -9.60 -25.60 -25.30 -15.90  -9.00  -6.60  -6.80
1992 10   5.30   7.56   9.77  12.52  17.71  17.50  15.30  16.20  16.00  16.30  11.20   6.20  -0.50 -14.10 -23.90 -16.30  -9.60  -3.80  -2.20
1992 11   1.14   6.50   8.74  10.50  15.34  21.60  18.90  19.40  18.90  17.00  14.10  11.00   7.40   1.70  -9.00 -15.70 -11.20  -5.80  -4.70
1992 12  -6.73   1.47   6.66   9.76  12.85  16.90  18.20  18.40  18.90  19.60  17.60  16.10  13.70  12.60   4.40 -10.30 -10.50  -6.70  -5.00
1993 01 -11.79  -8.18  -0.90   5.79  11.94  14.50  16.70  17.10  17.80  17.70  15.50  14.60  13.40  15.60   7.40   2.60  -2.40  -0.50  -4.50
1993 02 -12.82 -14.41 -11.48  -5.93   7.13  13.80  17.60  21.40  20.80  19.00  16.40  14.70  14.80  15.30   8.60   3.20  -2.30  -3.40  -6.40
1993 03 -13.37 -15.68 -17.21 -16.64  -7.14   6.80  16.80  20.10  19.00  19.20  17.00  15.20  13.30  12.00   7.80   2.00   2.10  -1.10  -2.30
1993 04 -13.96 -16.35 -18.50 -20.23 -20.26 -12.60  -1.30  12.40  12.10   8.00  11.20  14.80  13.50  10.70   9.10   8.30   5.50   1.00  -2.90
1993 05 -14.55 -17.07 -19.27 -21.35 -24.73 -26.80 -23.10 -15.80  -5.20   5.70  10.80  13.30  12.00  13.40  11.80  10.00   8.80   3.80   0.80
1993 06 -14.23 -17.80 -20.22 -22.20 -26.10 -29.50 -30.30 -29.10 -22.60  -4.40   4.80  11.80  12.60  10.70  10.00  10.90   9.50   5.40   4.60
1993 07 -13.60 -17.41 -20.69 -23.48 -27.15 -30.80 -30.20 -31.60 -25.80 -18.70  -1.00   9.60  10.70   9.50   8.60   7.40   5.70   6.40   1.20
1993 08 -12.27 -16.66 -20.32 -23.28 -28.71 -32.00 -32.00 -31.60 -28.00 -17.60  -0.80   9.70   9.20   9.90   8.30   9.80   4.30   2.50   3.00
1993 09 -14.99 -14.98 -18.65 -23.04 -28.48 -34.00 -35.00 -32.60 -31.60 -19.50  -4.40   4.10   9.80  10.30  10.30   7.00   3.20   2.50   2.90
1993 10 -15.04 -18.33 -18.60 -19.65 -28.18 -33.10 -33.60 -34.00 -30.10 -25.30 -11.10   0.10   8.10   9.70   8.90   7.30   7.10   4.90  -1.40
1993 11 -15.34 -18.40 -21.45 -23.15 -24.07 -32.90 -36.20 -34.40 -31.10 -26.00 -20.50  -7.80   0.30   9.60  10.30  10.30   9.20   3.80  -1.40
1993 12 -14.73 -18.75 -21.54 -24.39 -28.27 -26.80 -35.70 -32.70 -30.00 -29.70 -24.00 -12.10  -0.60   6.30   8.30   9.20   6.70   3.20   0.30
1994 01  -6.85 -18.08 -22.26 -24.52 -29.83 -34.80 -38.50 -31.50 -31.50 -33.20 -25.10 -17.40  -3.00   4.30   8.40  11.00   5.10   0.30  -3.50
1994 02   2.71  -8.48 -19.00 -25.93 -29.99 -34.90 -33.80 -31.30 -31.50 -30.10 -26.50 -16.50  -2.10   2.70   6.60   7.90   4.70  -0.80  -1.00
1994 03   3.94   3.31  -6.21 -17.59 -31.69 -35.10 -33.90 -33.40 -31.90 -31.60 -29.10 -19.00  -7.60   1.20   7.40  10.80   9.20   3.90  -1.10
1994 04   5.15   4.80   4.24  -0.09 -21.61 -37.60 -36.20 -35.20 -33.20 -31.50 -29.80 -25.70 -16.60  -6.20   3.40   8.60   8.30   3.90   0.10
1994 05   6.08   6.30   6.02   5.53  -0.28 -21.80 -35.10 -36.40 -33.60 -32.60 -31.80 -29.50 -25.60 -18.10  -9.70   3.50   8.60   5.60  -0.70
1994 06   7.01   7.43   7.66   7.60   6.75   5.70  -5.60 -26.20 -34.90 -34.10 -32.80 -31.00 -28.20 -24.60 -21.10 -10.50  -1.40   0.70  -0.80
1994 07   7.93   8.56   8.96   9.25   9.27   8.50   5.10  -3.80 -29.30 -34.90 -33.80 -32.60 -30.30 -27.40 -24.80 -16.80  -7.20  -3.30  -5.10
1994 08   8.07   9.70  10.37  10.68  11.31  11.50  11.10   7.20  -4.80 -26.30 -33.60 -33.30 -31.40 -29.30 -26.90 -18.50  -9.50  -5.70  -9.50
1994 09   7.57   9.86  11.35  12.47  13.05  13.70  13.80  14.40   8.60  -5.70 -27.10 -31.60 -31.00 -29.60 -27.80 -19.70 -12.00  -6.60  -5.90
1994 10   4.04   9.30  11.68  12.92  15.23  15.70  15.10  14.30  11.70   8.70  -0.90 -12.80 -23.60 -28.70 -28.00 -17.00  -9.60  -9.50 -11.30
1994 11   1.84   4.96   9.60  13.54  15.81  18.40  18.50  17.80  16.00  14.30  10.90   5.60  -3.20 -14.80 -24.30 -17.30 -11.00  -9.50 -11.90
1994 12  -3.38   2.29   5.28   8.53  16.56  18.50  19.60  19.90  19.00  18.10  16.70  12.40   5.10  -0.30  -6.40 -14.10  -7.00  -6.90  -9.00
1995 01 -10.68  -4.06   1.34   5.04  10.49  19.60  19.70  18.30  17.40  18.60  17.80  16.30  13.40   9.20   2.60  -2.60  -1.50  -2.80  -4.00
1995 02 -12.61 -13.04  -7.48  -0.98   6.19  10.20   9.20   7.90  11.20  11.70  11.50   9.10   7.10   5.00   2.50  -0.10  -0.60  -1.40  -3.60
1995 03 -14.20 -15.41 -15.88 -13.63  -1.14   6.40   5.40   6.30  11.10  11.40   8.60   5.90   4.90   5.20   4.80  -0.30  -4.00  -4.00  -3.50
1995 04 -15.23 -17.36 -18.51 -19.23 -16.56  -3.50   4.90  10.70  15.20  14.70  11.00   7.50   6.10   5.90   5.80   2.60  -2.50  -4.00  -2.70
1995 05 -14.17 -18.64 -20.79 -21.97 -23.50 -23.80 -13.80   3.60  14.80  16.30  15.50  13.00  11.30  11.10  11.20   9.00   4.10  -1.30  -4.70
1995 06 -12.98 -17.35 -21.47 -24.56 -26.85 -28.50 -24.40 -12.70  10.20  15.60  15.10  13.50  13.00  13.00  12.00   7.80   3.50  -2.00  -8.60
1995 07 -11.07 -15.89 -19.91 -23.78 -30.02 -32.20 -29.20 -19.50   1.60  10.60  12.50  11.40  10.90  10.30  10.60  11.50   8.60   4.60  -0.20
1995 08  -8.68 -13.58 -18.17 -21.94 -29.11 -35.90 -31.30 -21.10  -2.80   5.70   7.20   7.80   8.50   9.10   9.90  10.00   8.70   7.20   2.80
1995 09 -12.20 -10.58 -14.57 -19.89 -26.85 -33.50 -28.90 -20.90  -6.60  -1.00   3.40   5.90   6.90   8.80  10.20   9.20   6.50   4.60   1.60
1995 10 -13.35 -14.91 -13.66 -14.10 -24.34 -30.80 -27.70 -21.60 -13.40 -11.10  -3.20   2.40   5.80   8.80  10.20   9.00   6.80   4.30   1.90
1995 11 -13.76 -16.33 -17.84 -17.95 -17.30 -27.80 -24.10 -19.50 -19.10 -18.30 -13.10  -2.90   4.60   8.00   9.70   7.50   4.70   3.50  -1.70
1995 12 -13.35 -16.84 -19.29 -21.03 -21.90 -18.10 -22.70 -20.80 -23.20 -22.60 -16.90  -5.40   3.80   8.10   9.80   8.00   5.80   3.20   0.20
1996 01 -10.54 -16.33 -19.53 -22.30 -25.70 -27.70 -27.30 -26.70 -26.10 -25.70 -18.30  -6.30   2.50   7.10   8.60   7.20   5.80   3.70   0.40
1996 02  -0.69 -12.99 -19.04 -21.91 -27.26 -30.70 -30.10 -27.90 -28.30 -29.10 -20.20  -6.90   3.30   7.30   8.70   8.30   6.50   3.90   2.90
1996 03  -0.16  -0.84 -11.27 -21.53 -26.81 -32.20 -29.60 -28.60 -32.10 -29.30 -23.90 -11.20   0.10   6.30   8.30   8.10   4.40   0.00  -4.30
1996 04   2.27  -0.22  -0.98  -5.44 -26.34 -31.10 -31.10 -33.10 -32.80 -30.40 -27.70 -20.20  -8.50   2.70   8.90   9.80   6.20   2.70   0.30
1996 05   4.72   2.76   0.51  -1.12  -6.82 -30.70 -34.50 -36.90 -33.30 -31.50 -30.70 -28.40 -21.90 -11.80  -1.00   8.80   7.10   1.70  -2.00
1996 06   7.51   5.75   3.97   2.02  -1.37  -1.60 -19.80 -36.00 -34.50 -33.60 -33.00 -31.70 -28.10 -21.90 -14.00   1.70   6.30   4.40   0.20
1996 07   9.43   9.17   7.59   5.90   2.44  -1.60 -13.20 -31.80 -35.30 -33.80 -32.50 -31.50 -28.60 -24.70 -19.00  -4.70   1.90   1.10  -6.10
1996 08   8.02  11.55  11.63  10.24   7.18   4.10  -0.70 -19.30 -35.90 -35.00 -34.60 -33.50 -30.30 -26.10 -19.90  -7.50  -2.40  -2.50  -5.90
1996 09   8.15   9.80  12.93  14.94  12.49   9.60   9.60   2.30 -25.90 -35.10 -35.50 -33.40 -30.50 -26.30 -20.70  -8.30  -2.30  -3.90 -10.30
1996 10   8.59   9.97  11.48  13.63  18.23  16.00  13.60  10.20  -4.20 -29.10 -34.90 -32.60 -29.90 -26.40 -22.30 -11.70  -3.20  -1.80  -6.20
1996 11   8.83  10.50  11.80  13.06  16.70  22.80  21.90  19.90   4.10  -4.70 -28.40 -32.00 -29.40 -25.20 -20.30 -11.20  -7.20  -7.80  -8.20
1996 12   8.58  10.81  12.37  13.68  15.98  18.60  20.20  20.80  17.90   8.20  -5.60 -23.40 -29.50 -25.00 -19.90  -9.60  -3.10  -3.40  -8.20
1997 01   7.13  10.51  12.65  14.23  16.73  18.70  18.90  17.60  15.40  10.10   2.20 -10.50 -23.90 -23.50 -18.50  -8.70  -5.90  -6.20  -6.30
1997 02   4.60   8.74  11.87  14.39  17.40  19.80  18.60  17.00  15.20  11.80  10.00   2.50 -13.30 -22.50 -18.30  -6.30  -0.50   0.40  -5.40
1997 03   0.16   5.67   9.62  12.70  17.60  20.50  19.20  18.60  17.10  13.30  10.60   5.60  -3.90 -15.50 -19.20 -11.90  -8.70  -5.40  -3.90
1997 04  -3.03   0.22   5.10   9.81  15.55  20.60  19.90  19.40  18.00  17.10  15.10  12.20   9.50   4.30  -3.60  -9.50  -5.40  -5.40  -5.30
1997 05  -7.27  -3.67  -0.65   2.94  12.03  17.50  17.40  16.90  17.00  16.10  15.10  13.70  12.00   7.80   3.50  -3.20  -7.60 -10.60 -10.00
1997 06 -10.45  -8.86  -5.64  -2.43   3.66  13.10  14.40  16.40  17.30  17.40  16.70  14.20  13.30  13.30  11.80   5.50  -2.40  -6.40  -8.10
1997 07 -10.40 -12.78 -11.61  -8.94  -2.94   1.80   6.60   9.20  12.50  14.90  14.10  12.30  12.60  13.60  13.70  11.90   9.00   5.10  -0.10
1997 08  -9.37 -12.73 -14.98 -15.55 -10.87  -4.90   2.40   7.30  11.70  12.70  11.40  11.50  13.30  13.40  13.70  10.50   9.00   6.30   2.30
1997 09  -7.73 -11.48 -14.66 -17.09 -18.96 -14.90  -1.20   7.80  11.40   9.30   9.70   9.60  11.20  11.40  12.20  10.70   9.50   6.90   5.10
1997 10  -8.81  -9.45 -12.71 -16.25 -20.90 -24.20 -15.60  -2.00   3.20   1.90   7.50  10.50  12.20  11.80   9.90   5.50   7.30   6.40   5.80
1997 11 -11.11 -10.75 -11.28 -13.10 -19.89 -24.50 -20.00 -10.10 -10.40  -9.40   1.50   9.20  12.40  13.00  12.20   6.00   6.30   4.90   2.70
1997 12 -12.81 -13.57 -13.30 -13.25 -16.05 -22.90 -16.50 -13.20 -20.00 -15.30  -4.90   8.40  11.40  11.80   6.80   4.80   3.30  -1.40  -3.40
1998 01 -10.08 -15.67 -16.57 -16.47 -16.19 -17.60 -15.40 -19.20 -23.50 -21.50  -5.00   8.90  13.80  10.40   8.00   2.80   2.00  -3.40  -2.20
1998 02  -0.31 -12.43 -18.22 -20.14 -20.12 -19.30 -21.70 -25.00 -26.70 -23.80  -5.70   8.90  12.80  11.50  10.30   6.80   3.90   0.00   1.00
1998 03   2.94  -0.41 -10.89 -20.53 -24.60 -24.70 -27.40 -27.00 -31.00 -26.30 -12.70   5.00  10.60  10.20   8.20   6.40   2.90  -1.70  -1.90
1998 04   6.17   3.56   0.46  -5.54 -25.11 -29.90 -29.40 -30.60 -30.30 -28.90 -25.30 -16.10  -3.40   6.50  10.30  11.70   9.60   5.20   3.40
1998 05   5.88   7.56   5.52   2.26  -6.94 -29.20 -31.80 -33.40 -30.30 -29.40 -28.00 -26.80 -22.60 -17.20  -6.00   9.90   6.80   1.80  -5.50
1998 06   7.55   7.18   8.60   8.80   2.73  -2.20 -21.90 -34.20 -31.60 -30.70 -29.70 -28.60 -26.20 -22.90 -17.20  -1.60   3.00  -4.10 -10.40
1998 07   9.49   9.21   8.82   9.34  10.70   4.70  -1.20 -19.50 -32.40 -30.70 -30.80 -29.90 -27.80 -25.90 -21.40  -6.40   0.80  -0.30  -8.20
1998 08   7.69  11.62  11.67  10.80  11.44  14.70  10.90   3.00 -22.40 -31.70 -32.10 -30.30 -29.00 -27.70 -23.00  -8.60  -1.20   0.20  -1.70
1998 09   5.44   9.43  13.12  14.95  13.19  13.00  12.40  10.60  -1.10 -25.90 -31.10 -30.90 -31.40 -29.20 -23.70 -12.60  -3.50   0.40  -1.60
1998 10   4.94   6.66  10.12  14.02  18.25  16.10  14.20  12.50   9.20  -9.00 -29.20 -33.70 -32.50 -27.60 -23.10 -13.00  -3.00  -1.60  -4.40
1998 11   3.23   6.06   7.81   9.81  17.16  22.80  20.90  20.40  16.20   7.80  -6.80 -29.30 -32.70 -28.20 -23.80 -15.80  -8.70  -3.50  -2.90
1998 12   3.73   3.93   6.25   8.92  12.03  19.30  20.70  21.40  20.90  16.20   7.00  -5.30 -22.60 -28.10 -23.90 -11.90  -7.10  -3.80  -9.60
1999 01  -1.52   4.60   5.16   5.54  10.91  12.60  12.40  13.70  15.30  13.00   9.90   2.10  -6.90 -14.40 -23.70 -12.00  -6.50  -5.50 -16.10
1999 02  -8.42  -1.78   4.03   6.93   6.81  12.80  18.10  21.90  19.90  16.90  13.10   9.20   4.60  -3.60 -16.70 -13.70  -7.80  -5.30  -3.70
1999 03  -8.84 -10.29  -4.80   2.04   8.45   6.60  10.70  11.60  10.50   9.00   9.80   9.90   7.00   2.80   0.30  -7.90  -5.70  -7.80 -15.80
1999 04  -9.60 -10.80 -12.13 -10.57   2.56  10.80  15.40  16.20  17.20  15.30  14.00  11.80  10.40   8.30   5.00  -0.10  -3.90  -6.10 -10.10
1999 05 -10.17 -11.73 -12.90 -13.95 -12.81   0.80   5.20  10.00  12.90  12.60  12.60  11.50   9.90   6.70   5.20   4.70   1.30  -3.00 -11.70
1999 06 -11.10 -12.43 -13.84 -15.16 -17.06 -19.40  -4.80   5.20  12.10  13.50  13.70  13.10  12.10  10.10  10.10   7.10   4.40   2.00  -6.60
1999 07 -10.94 -13.58 -14.92 -15.95 -18.53 -20.10 -14.00  -0.50   7.00   9.20  11.10  10.60   8.30   7.70   8.50   6.20   5.00   3.70  -1.30
1999 08 -11.37 -13.39 -15.81 -17.68 -19.51 -22.10 -12.60  -0.30   6.50   9.90  11.00  10.30   9.70   9.60  10.00   6.40   3.20   1.90   0.60
1999 09 -12.91 -13.90 -15.66 -17.84 -21.61 -23.00 -13.20  -2.30   5.80   9.20  10.10   8.30   9.50  10.00  10.00   7.00   3.50   3.50   3.30
1999 10 -13.28 -15.79 -16.82 -17.82 -21.82 -25.90 -21.60 -14.40  -2.20   7.70   9.10  10.10  11.90  12.20  12.50   8.40   4.00   5.10   4.20
1999 11 -13.79 -16.24 -18.58 -20.20 -21.79 -25.40 -23.90 -20.40  -9.50  -0.40   4.70   8.90  11.10  11.40  11.00   6.70   4.20   3.00  -1.80
1999 12 -15.03 -16.85 -19.08 -21.34 -24.69 -25.50 -27.90 -23.70 -18.60  -5.40   6.10  11.30  12.50  12.00  12.20   9.50   3.20  -0.80  -4.90
2000 01 -15.89 -18.38 -20.09 -21.86 -26.09 -29.80 -27.10 -27.00 -23.20  -4.70   7.40  11.70  12.70  12.80  12.30   9.30   6.20   2.20  -0.80
2000 02 -14.12 -19.44 -21.87 -23.56 -26.73 -30.70 -30.50 -30.10 -22.30  -3.20   9.50  12.40  12.90  13.10  12.40  10.60   4.80   0.70  -2.30
2000 03  -9.57 -17.32 -22.53 -25.59 -28.80 -31.40 -31.90 -33.70 -22.70   1.30  11.30  13.00  13.70  14.70  13.40   9.60   4.60   1.80  -2.30
2000 04 -10.89 -11.70 -18.37 -25.25 -31.28 -34.30 -36.20 -34.80 -30.40  -9.50   6.10  11.70  12.80  13.00  12.70  10.60   6.00   1.00  -2.80
2000 05 -13.00 -13.29 -13.94 -17.32 -30.89 -37.20 -36.50 -36.10 -33.30 -25.70  -7.10   6.30  11.10  12.70  14.00  11.90   9.20   3.50  -1.60
2000 06  -9.87 -15.91 -16.49 -16.35 -21.27 -35.80 -37.80 -38.40 -34.30 -30.40 -22.70  -7.90   5.70  11.80  14.30  13.20  10.60   8.20   2.20
2000 07  -1.06 -12.16 -18.23 -20.50 -19.98 -21.80 -38.30 -37.40 -36.30 -32.30 -28.20 -13.60   1.90   8.80  12.70  11.60   9.20   5.50   0.40
2000 08   1.71  -1.33 -11.02 -20.00 -25.03 -23.80 -39.20 -38.60 -35.30 -33.40 -29.40 -16.40   0.20   8.80  12.40   9.70   8.80   6.70   4.40
2000 09   0.31   2.10  -0.39  -6.52 -24.48 -30.80 -40.10 -38.70 -35.70 -34.50 -28.80 -15.80  -0.10   9.40  11.20  10.50   7.60   4.80   3.40
2000 10  -2.47   0.42   2.25   1.73  -8.12 -28.00 -39.30 -36.90 -36.90 -33.90 -27.50 -17.30  -6.10   2.10   7.00   8.10   6.20   4.60   2.60
2000 11   0.06  -3.04  -0.82   2.18   2.07  -4.30 -24.50 -38.10 -35.70 -31.10 -25.30 -19.40  -7.80   0.70   5.20   5.40   3.50  -3.60  -8.60
2000 12   3.10   0.05  -2.83  -3.39   2.68   4.30  -9.60 -35.80 -32.80 -28.20 -25.90 -20.20  -8.60  -0.70   4.00   4.60  -0.60  -3.00  -8.30
2001 01   4.07   3.78   1.10  -1.85  -4.09   2.80  -7.50 -32.70 -32.10 -29.80 -28.40 -20.00  -6.50   0.90   5.90   5.20   0.70  -4.90  -9.50
2001 02   1.52   5.00   5.05   3.19  -2.29  -6.90 -22.10 -36.10 -31.10 -30.40 -27.20 -18.50  -6.30   2.10   5.10   3.40   2.20   1.50  -3.50
2001 03   0.93   1.86   4.93   6.93   3.86  -1.50 -17.90 -35.80 -32.20 -30.90 -26.90 -16.40  -5.00   2.90   5.60   3.90  -3.00  -5.90  -5.40
2001 04   2.49   1.13   1.82   3.88   8.44   6.20  -4.60 -28.20 -34.40 -31.70 -30.90 -22.50  -9.10   1.50   5.20   5.40   1.70  -3.50  -7.70
2001 05   4.13   3.04   1.81   1.38   4.78  10.90   6.30  -4.60 -35.20 -32.80 -31.80 -28.10 -19.80  -9.10  -0.50   4.40   4.20  -0.30  -3.50
2001 06   5.72   5.04   4.05   2.96   1.70   4.10   6.10   2.10 -25.50 -36.30 -33.10 -29.80 -23.70 -17.70  -8.00  -0.10   5.50   4.60  -1.10
2001 07   6.41   6.99   6.46   5.54   3.60   1.40   6.20   8.90  -3.50 -34.40 -34.90 -31.80 -26.80 -21.50 -15.80  -5.00  -0.40   0.30  -5.50
2001 08   6.73   7.84   8.41   8.40   6.75   5.00   8.00   7.70   3.90 -17.30 -35.40 -31.90 -27.80 -23.00 -18.40  -9.70  -5.40  -3.30  -2.30
2001 09   6.97   8.24   9.28  10.01  10.25   8.70   9.10   9.70   7.40  -4.80 -30.70 -32.20 -28.40 -25.50 -20.20  -8.70  -3.10  -3.20  -9.10
2001 10   8.02   8.52   9.66  10.78  12.24  12.90  13.00  13.20  10.60   5.20 -13.60 -30.40 -28.60 -25.40 -19.90  -8.70  -5.00  -5.90  -7.70
2001 11   8.51   9.79  10.20  11.02  13.18  14.70  15.60  16.20  15.30  12.00   2.10 -13.30 -28.70 -27.40 -20.50  -9.30  -3.90  -1.10  -4.90
2001 12   2.50  10.45  12.09  12.04  13.48  15.60  19.20  22.40  21.10  20.60  14.00   0.10 -17.60 -24.60 -20.50 -12.30  -6.20  -3.80  -0.70
2002 01  -5.63   3.13  10.56  14.95  14.72  15.80  19.00  21.00  19.90  16.60  11.80   3.70  -1.40 -12.90 -18.50 -10.00  -4.70 -10.50 -13.50
2002 02 -10.62  -6.84   0.95   8.89  18.26  17.60  20.00  19.90  20.20  18.00  14.80  11.60   6.70   0.10 -10.00 -10.90  -6.20  -2.30   0.50
2002 03 -10.97 -12.99  -9.93  -4.01  10.94  22.40  22.60  22.90  21.30  18.40  15.80  14.70  13.50   9.00   4.30  -5.30  -8.70  -8.50  -8.60
2002 04 -10.40 -13.42 -15.36 -14.93  -4.79  10.10  12.10  14.70  16.70  13.70  12.90  13.30  13.00   9.90   9.90   6.20   0.90  -8.30  -6.90
2002 05  -9.81 -12.73 -15.56 -17.78 -18.17 -10.00   4.50  10.30  15.10  14.60  13.30  12.00  10.70  10.20  11.50   9.60   3.50  -0.70  -1.30
2002 06 -10.84 -11.98 -14.55 -17.42 -21.74 -24.40 -13.00   0.20   5.20   6.80   9.20   9.50   9.00  10.40   9.20   6.40   3.30   2.20  -2.10
2002 07 -11.23 -13.25 -14.37 -15.90 -21.32 -25.70 -14.80  -1.20   7.30  10.10  10.30   7.70   7.80   7.60   8.50   6.10   1.00  -4.40 -12.00
2002 08 -10.55 -13.74 -15.67 -17.01 -19.46 -24.70 -11.80  -2.10   7.30   8.30   8.30   8.10   8.80   9.40   8.70   4.90   4.20   2.20  -1.20
2002 09  -8.86 -12.92 -16.00 -18.13 -20.79 -22.20 -10.40   0.70   6.60   7.20   6.50   7.00   9.10   9.10   8.00   7.70   5.80   3.70   2.80
2002 10 -10.19 -10.82 -14.35 -18.05 -22.17 -24.90 -16.70  -9.30  -1.30  -2.60   4.10   7.20  10.40   9.70   9.20   8.20   8.80   8.00   1.30
2002 11 -12.79 -12.44 -12.95 -14.89 -22.08 -26.20 -23.00 -17.50 -11.80 -12.30  -4.20   5.20   6.60   7.10   6.80   6.50   5.20   1.70  -1.10
2002 12 -13.73 -15.62 -15.41 -15.27 -18.24 -25.70 -21.50 -15.10 -19.80 -19.10  -4.10   4.00   6.40   6.30   6.70   6.60   3.00  -3.80  -6.50
2003 01  -8.86 -16.81 -18.90 -19.12 -18.66 -20.10 -18.40 -20.30 -26.20 -18.20  -1.40   6.20   7.70   7.30   5.80   4.00   3.10   0.90  -0.50
2003 02   1.42 -10.94 -18.70 -22.66 -23.35 -22.30 -26.00 -28.80 -28.00 -17.20  -0.20   7.60   8.90   8.20   6.30   6.10   4.20   0.00  -0.70
2003 03   6.04   1.68  -9.19 -19.45 -27.69 -28.70 -30.80 -33.50 -29.00 -20.90  -7.30   4.40   7.60   6.30   4.70   6.30   4.70   3.20   2.60
2003 04   6.10   7.38   3.79  -3.68 -23.83 -33.40 -35.80 -33.90 -29.50 -26.40 -19.40  -6.90   3.50   5.50   5.90   6.50   1.90  -2.90  -4.10
2003 05   5.67   7.46   8.71   7.72  -4.66 -26.30 -36.40 -33.20 -30.10 -28.50 -26.90 -20.20  -9.50   0.60   4.70   7.80   5.90  -2.20  -6.50
2003 06   6.48   6.93   8.51  10.05   9.36   0.40 -14.00 -31.50 -30.80 -29.40 -28.80 -24.90 -17.50  -4.90   1.40   6.20   5.50   2.80  -4.10
2003 07   8.42   7.91   8.28   9.26  12.29  13.90  10.30  -7.50 -32.90 -31.80 -31.30 -27.50 -21.50 -12.00  -2.90   2.70   4.00   4.20   0.50
2003 08   9.98  10.28   9.79   9.74  11.33  14.50  13.80   5.30 -23.70 -34.10 -31.80 -28.80 -23.20 -17.70  -8.50   0.70   3.10   1.10  -4.10
2003 09   7.31  12.23  12.88  12.14  11.90  12.90  11.90   8.70  -9.50 -33.70 -31.30 -28.10 -24.10 -18.00 -10.20   0.40   2.70   4.00   3.70
2003 10   6.04   8.95  13.41  16.26  14.82  14.20  12.10   9.20  -1.50 -32.60 -31.20 -28.60 -24.80 -19.40 -13.30  -1.90   3.40   4.60   2.10
2003 11   7.00   7.38   9.82  13.57  19.84  18.20  16.80  15.80   6.90 -16.10 -32.10 -29.10 -23.90 -20.40 -16.40  -6.50   0.40  -0.30  -7.40
2003 12   5.32   8.58   9.15   9.94  16.63  24.60  24.20  24.20  16.50   4.70 -16.50 -29.20 -24.50 -21.40 -18.00 -10.30  -0.90   0.40  -1.40
2004 01   3.62   6.53   9.50  11.38  12.19  18.00  22.20  22.50  20.90  12.10  -1.60 -21.00 -24.40 -23.60 -20.40 -10.30  -6.20  -5.50  -4.60
2004 02   1.93   4.44   7.10   9.81  13.90  13.20  16.10  14.30  15.30  12.10   7.80   1.30 -11.10 -23.30 -19.20 -10.80  -3.60  -2.10  -0.30
2004 03   0.74   2.37   4.62   7.08  12.02  17.10  17.40  17.00  16.30  14.00  11.20   6.70  -1.10 -12.80 -17.70 -10.70  -5.80  -5.10  -9.60
2004 04  -0.74   0.92   2.38   4.19   8.69  13.20  13.10  14.70  15.50  14.20  12.60  13.60  12.20   7.30   1.10  -7.90  -7.70  -9.50  -9.40
2004 05  -3.92  -0.87   0.78   1.97   5.15   9.30  10.80  13.20  14.50  12.40  12.00  12.10  11.20   8.90   8.90   2.90  -2.60  -5.30  -5.90
2004 06  -5.79  -4.78  -2.10   0.33   2.43   5.10   8.20  10.70  11.00  10.30   9.50  11.30  11.20  10.90  11.20   7.20   4.30  -0.60  -2.10
2004 07  -6.44  -7.08  -6.29  -4.41   0.41   2.20   7.20   9.40   6.90   8.30   9.00   9.10  10.00  10.80  10.80   7.90   3.90   0.10  -6.00
2004 08  99.90  -7.87  -8.44  -8.46  -5.34   0.00   2.70   3.10   1.80   5.40   9.80  10.70  11.40  11.30   7.40   6.10   3.40  -0.10  -3.10
2004 09  99.90  99.90  -9.55  -9.89 -10.32  -8.00  -6.00  -6.00  -5.20   3.80   8.80   8.70   8.20   7.40   7.00   4.10   3.40   4.40   0.60
2004 10  99.90  99.90  99.90 -11.50 -12.09 -13.20 -13.90 -13.70  -9.80   2.30   7.30   9.70  10.10  10.30   9.20   6.70   6.50   4.10  -0.50
2004 11  99.90  99.90  99.90  99.90 -14.05 -14.40 -14.10 -20.20 -19.80  -8.40   4.80   8.70  10.10   8.50   5.60   5.60   3.70   2.30  -2.00
2004 12  99.90  99.90  99.90  99.90  99.90 -17.00 -22.20 -24.60 -24.70 -16.90   1.40  10.00  10.40   7.60   6.70   6.20   6.20   3.30   1.00
2005 01  99.90  99.90  99.90  99.90  99.90 -26.10 -28.30 -28.30 -28.30 -19.40  -1.80   9.50   9.50   8.10   5.50   4.20   0.40  -2.90  -1.30
2005 02  99.90  99.90  99.90  99.90  99.90 -31.30 -30.10 -30.80 -29.70 -16.30   1.80   9.30  11.90  11.10   9.80   7.20   2.40  -0.30   1.00
2005 03  99.90  99.90  99.90  99.90  99.90 -34.70 -34.00 -34.00 -29.70 -18.90  -0.90  11.50  15.10  14.40  14.60  12.40   7.80   1.50  -4.80
2005 04  99.90  99.90  99.90  99.90  99.90 -35.10 -34.90 -34.10 -32.90 -27.80 -17.80  -2.40   5.80   7.90   8.50   7.10   2.90   1.20  -0.10
2005 05  99.90  99.90  99.90  99.90  99.90 -37.40 -35.40 -34.30 -33.00 -30.00 -26.60 -20.00  -8.10   3.10   8.20   9.10   7.30  -0.30  -8.60
2005 06  99.90  99.90  99.90  99.90  99.90 -38.00 -38.40 -35.60 -33.10 -29.80 -28.60 -26.50 -20.10  -9.20  -1.20   3.60   5.00   5.20  -2.40
2005 07  99.90  99.90  99.90  99.90  99.90 -23.20 -38.10 -35.30 -33.90 -31.30 -30.90 -29.70 -25.10 -17.40  -7.10   1.80   4.40   4.00  -1.20
2005 08  99.90  99.90  99.90  99.90  99.90 -20.10 -36.80 -36.20 -32.40 -32.00 -31.60 -30.60 -27.50 -20.20 -12.00  -1.20   4.50   4.60   4.50
2005 09  99.90  99.90  99.90  99.90  99.90   0.10 -20.60 -33.40 -33.40 -32.10 -31.80 -30.60 -26.60 -20.40 -14.40  -3.00   0.00   0.50  -1.50
2005 10  99.90  99.90  99.90  99.90  99.90  12.10   7.20  -7.60 -32.00 -32.60 -32.00 -29.30 -25.60 -20.80 -17.30  -6.00  -0.30  -1.60  -1.30
2005 11  99.90  99.90  99.90  99.90  99.90  17.70  16.90  10.60 -13.60 -35.30 -33.30 -28.90 -24.30 -21.40 -17.30  -7.70  -1.60  -1.20  -2.50
2005 12  99.90  99.90  99.90  99.90  99.90  18.80  20.40  19.50   3.40 -24.00 -32.40 -27.80 -25.30 -23.00 -19.80  -7.00   0.80   1.90  -0.20
2006  1  99.90  99.90  99.90  99.90  99.90  17.10  17.50  16.50   9.40  -3.60 -28.80 -30.30 -27.10 -21.40 -15.20  -4.00  -1.40  -4.70 -11.20
2006  2  99.90  99.90  99.90  99.90  99.90  12.70  12.20  15.20  16.40   8.90  -9.30 -28.00 -26.10 -19.60 -13.80  -7.80  -6.30  -7.40  -8.60
2006  3  99.90  99.90  99.90  99.90  99.90  11.60  13.50  16.60  17.60  14.50   8.30  -5.10 -24.00 -21.00 -15.40  -9.40  -3.10  -0.30  -5.60
2006  4  99.90  99.90  99.90  99.90  99.90   0.60   3.90   9.40  12.60  11.40   8.50   4.90  -4.80 -17.80 -20.10 -10.20  -7.20  -4.50  -5.70
2006  5  99.90  99.90  99.90  99.90  99.90   6.90  10.60  13.20  14.10  11.10  10.60   8.60   8.90   3.50  -7.10 -15.20 -12.50  -7.40  -5.40
2006  6  99.90  99.90  99.90  99.90  99.90   1.90   6.50  13.20  17.30  14.60  12.30  11.40  11.00  11.30   7.90  -6.10 -11.00  -8.10  -9.90
2006  7  99.90  99.90  99.90  99.90  99.90  -2.10   7.00  11.40  13.10  12.10  12.60  11.10  11.70  10.60  10.70   6.00  -2.40  -5.80 -11.40
2006  8  99.90  99.90  99.90  99.90  99.90  -2.80   0.40   6.20   6.50   6.40   7.10   8.90   9.90   8.60   8.60   6.90   0.80  -0.90  -0.80
2006  9  99.90  99.90  99.90  99.90  99.90  -5.40   3.30   7.30   7.60   8.00  10.90  12.30  13.30  11.70  10.90   8.90   6.80   3.90  -2.20
2006 10  99.90  99.90  99.90  99.90  99.90 -13.70  -5.10  -0.70   1.40   5.40   9.30  10.90  11.00   9.70   9.20   8.30   7.60   6.00   2.40
2006 11  99.90  99.90  99.90  99.90  99.90 -22.80 -14.90 -13.90 -12.30   6.30   8.90   8.80   8.90   9.30  10.40   7.60   6.20   4.30  -1.90
2006 12  99.90  99.90  99.90  99.90  99.90 -20.00 -17.90 -20.60 -21.00  -3.50   7.30   9.80  11.80  13.30  12.40   9.20   8.10   4.00  -1.20
2007  1  99.90  99.90  99.90  99.90  99.90 -22.60 -25.30 -26.60 -23.10  -8.90   5.40   8.20   9.70  10.70   9.60   5.50   4.10   3.30   3.50
2007  2  99.90  99.90  99.90  99.90  99.90 -31.80 -31.30 -29.60 -22.60  -6.90   5.30   9.00  10.70  11.10  11.10   9.10   3.40  -0.90  -1.70
2007  3  99.90  99.90  99.90  99.90  99.90 -32.60 -31.80 -31.70 -25.00 -11.50   1.40   8.00  11.10  10.90  10.30   7.80   5.50   3.70   1.70
2007  4  99.90  99.90  99.90  99.90  99.90 -33.80 -33.60 -32.10 -27.80 -23.30 -14.70   2.20   9.00  12.00  12.80  11.40   9.10   2.60  -1.70
2007  5  99.90  99.90  99.90  99.90  99.90 -36.80 -35.30 -32.00 -30.40 -28.50 -25.30 -18.40  -7.10   4.90   9.20  10.90   9.90   6.90   3.50
2007  6  99.90  99.90  99.90  99.90  99.90 -20.80 -37.10 -33.00 -31.80 -29.20 -29.70 -26.20 -20.40 -12.60  -3.90   5.60   7.90   5.10  -1.00
